Sample Index,EXG Channel 0,EXG Channel 1,EXG Channel 2,EXG Channel 3,EXG Channel 4,EXG Channel 5,EXG Channel 6,EXG Channel 7,EXG Channel 8,EXG Channel 9,EXG Channel 10,EXG Channel 11,EXG Channel 12,EXG Channel 13,EXG Channel 14,EXG Channel 15,Accel Channel 0,Accel Channel 1,Accel Channel 2,Other,Other.1,Other.2,Other.3,Other.4,Other.5,Other.6,Analog Channel 0,Analog Channel 1,Analog Channel 2,Timestamp,Other.7,Timestamp (Formatted)
238.0,-187500.02235174447,-133836.12142039795,-26421.21480956254,-28229.359177274608,-24707.97594880771,-19355.761332006616,-187500.02235174447,-31436.40982346652,-13606.512678445895,-14585.675547799534,-1492.314218558576,-43738.98878562317,-31122.25605514718,-33831.44394534158,1509.279192600154,11040.890042887931,0.0,0.0,0.0,192.0,0.0,0.0,0.0,0.0,0.0,0.0,0.0,0.0,0.0,1695758134.252515,0.0,2023-09-26 14:55:34.252
240.0,-187500.02235174447,-133762.11479450643,-26430.602542233773,-28245.854764682623,-24716.871943100923,-19378.71657356221,-187500.02235174447,-31453.240687041365,-13618.582620451763,-14605.814469553769,-1536.1236376909778,-43786.44153910179,-31137.790517543617,-33845.79376528189,1479.3278550300429,11034.60920269599,0.0,0.0,0.0,192.0,0.0,0.0,0.0,0.0,0.0,0.0,0.0,0.0,0.0,1695758134.252556,0.0,2023-09-26 14:55:34.252
242.0,-187500.02235174447,-133799.66572519133,-26432.234219579008,-28243.485479770363,-24726.147917049875,-19366.803093767536,-187500.02235174447,-31447.138660805067,-13628.79736766784,-14608.02729225484,-1460.060651309568,-43705.46116894021,-31143.1996397018,-33860.00947475547,1535.4530853573187,11053.51877850518,0.0,0.0,0.0,192.0,0.0,0.0,0.0,0.0,0.0,0.0,0.0,0.0,0.0,1695758134.252567,0.0,2023-09-26 14:55:34.252
244.0,-187500.02235174447,-133765.35579745244,-26427.070966609837,-28238.45633726792,-24714.904989588857,-19374.67090781581,-187500.02235174447,-31449.306780017232,-13619.297876274331,-14640.549080437311,-1537.442390613841,-43785.16748966784,-31135.26477042017,-33844.095032703284,1479.3055032855873,11026.60727818099,0.0,0.0,0.0,192.0,0.0,0.0,0.0,0.0,0.0,0.0,0.0,0.0,0.0,1695758134.252577,0.0,2023-09-26 14:55:34.252
246.0,-187500.02235174447,-133798.9281176243,-26431.09428061179,-28239.708034957413,-24720.89525710288,-19367.11601818991,-187500.02235174447,-31447.31747476071,-13629.31145779031,-14623.31588546227,-1469.5377909586182,-43706.93638407426,-31138.818697788563,-33848.54302984989,1527.518216075685,11047.99789762472,0.066,0.984,-0.242,192.0,1.0,8.0,15.0,96.0,124.0,56.0,0.0,0.0,0.0,1695758134.252587,0.0,2023-09-26 14:55:34.252
248.0,-187500.02235174447,-133789.51803320862,-26423.31587354134,-28233.650712210027,-24709.98760580869,-19371.85458801444,-187500.02235174447,-31445.395224737556,-13616.928591362072,-14660.285670791349,-1562.4763444037849,-43809.93322252431,-31133.610741330474,-33838.06006170035,1458.2725117531434,11012.883307085433,0.066,0.984,-0.242,192.0,0.0,0.0,0.0,0.0,0.0,0.0,0.0,0.0,0.0,1695758134.252597,0.0,2023-09-26 14:55:34.252
250.0,-187500.02235174447,-133776.15169002436,-26438.00096964848,-28247.44173853895,-24720.5376291916,-19380.392954396364,-187500.02235174447,-31457.152242321044,-13635.301725304333,-14636.034028057342,-1465.9168083568584,-43700.610840393405,-31146.50769788119,-33863.13871897921,1533.8214080120813,11053.675240716368,0.066,0.984,-0.242,192.0,0.0,0.0,0.0,0.0,0.0,0.0,0.0,0.0,0.0,1695758134.252616,0.0,2023-09-26 14:55:34.252
252.0,-187500.02235174447,-133777.20222201376,-26437.8892109262,-28246.592372249648,-24719.822373369025,-19384.863303287424,-187500.02235174447,-31459.23095455539,-13637.98393463897,-14685.498438536935,-1536.213044668799,-43779.11016692044,-31151.112157238986,-33861.03765500041,1483.7087969432828,11017.398359465404,0.066,0.984,-0.242,192.0,0.0,0.0,0.0,0.0,0.0,0.0,0.0,0.0,0.0,1695758134.252626,0.0,2023-09-26 14:55:34.252
254.0,-187500.02235174447,-133745.28393093156,-26440.347902816287,-28251.710921729915,-24719.7329663912,-19382.56107360853,-187500.02235174447,-31458.69451268846,-13642.096655618749,-14646.651106673611,-1450.5164564271518,-43678.661427338295,-31146.239476947725,-33864.1445474797,1544.7290593062712,11051.015383126189,0.066,0.984,-0.242,192.0,0.0,0.0,0.0,0.0,0.0,0.0,0.0,0.0,0.0,1695758134.252635,0.0,2023-09-26 14:55:34.252
0.0,-93750.01117587223,-70427.32929317109,-13237.28421178868,-14013.023854854568,-12324.863651378591,-9701.126480236826,-93750.01117587223,-15618.28143814581,-6819.181957147355,-7348.203044915563,-751.2421311428703,-21873.12655128557,-15571.812161423226,-16928.473642882545,753.0973259326609,5507.760406465579,0.065,0.984,-0.242,192.0,1.0,0.0,15.0,96.0,124.0,56.0,0.0,0.0,0.0,1695758134.343222,0.0,2023-09-26 14:55:34.343
2.0,-187500.02235174447,-140965.79145977396,-26454.541260545408,-27995.69404073883,-24632.78468046006,-19379.677698573792,-187500.02235174447,-31214.904035914427,-13261.49115103378,-19983.8677029452,-1815.878071293601,-41533.296291029015,-31036.24654248316,-33803.5266165169,2136.4244385271595,10942.140035884386,0.065,0.984,-0.242,192.0,0.0,0.0,0.0,0.0,0.0,0.0,0.0,0.0,0.0,1695758134.402932,0.0,2023-09-26 14:55:34.402
4.0,-187500.02235174447,-140866.5944178813,-26477.630612567737,-28040.26341918271,-24642.530041042573,-19402.25296047365,-187500.02235174447,-31241.74848100525,-13277.651462274966,-19941.5558506913,-1820.2590132068408,-41529.80941889399,-31066.063769586537,-33778.71618017151,2138.100819361308,10953.584129045505,0.065,0.984,-0.242,192.0,0.0,0.0,0.0,0.0,0.0,0.0,0.0,0.0,0.0,1695758134.402953,0.0,2023-09-26 14:55:34.402
6.0,-187500.02235174447,-140970.3735673873,-26469.0475426969,-28027.366462632,-24655.717570271205,-19400.04013777258,-187500.02235174447,-31232.740727989763,-13272.823485472618,-20035.947267526062,-1804.590440343671,-41520.42168622276,-31049.72464438971,-33878.82964358683,2146.102743876308,10935.345105569972,0.065,0.984,-0.242,192.0,0.0,0.0,0.0,0.0,0.0,0.0,0.0,0.0,0.0,1695758134.402997,0.0,2023-09-26 14:55:34.402
8.0,-187500.02235174447,-140877.2561999865,-26474.38960962172,-28031.45683186732,-24662.512500585617,-19408.91378032133,-187500.02235174447,-31245.95060896285,-13265.223892357815,-19909.57050437576,-1806.9597252559336,-41520.6005001784,-31059.62646718341,-33784.25941279643,2153.411764313193,10954.74641975718,0.064,0.988,-0.244,192.0,1.0,0.0,15.0,112.0,124.0,48.0,0.0,0.0,0.0,1695758134.403007,0.0,2023-09-26 14:55:34.403
10.0,-187500.02235174447,-140973.14518369976,-26487.398324894708,-28052.243954210757,-24672.660192568328,-19432.114891065943,-187500.02235174447,-31246.934085718884,-13273.270520361724,-19942.00288558041,-1780.6517220320372,-41501.98149704713,-31063.985057352194,-33786.31577328632,2166.9792731975645,10934.808663703045,0.064,0.988,-0.244,192.0,0.0,0.0,0.0,0.0,0.0,0.0,0.0,0.0,0.0,1695758134.403016,0.0,2023-09-26 14:55:34.403
12.0,-187500.02235174447,-140898.55741245238,-26489.208816195587,-28027.321759143088,-24665.97702097619,-19426.25873401865,-187500.02235174447,-31255.60656256754,-13265.5815202691,-19928.055397040294,-1824.684658608992,-41542.25934055559,-31069.707103932757,-33824.00081443797,2138.7490199505114,10921.509375752135,0.064,0.988,-0.244,192.0,0.0,0.0,0.0,0.0,0.0,0.0,0.0,0.0,0.0,1695758134.403026,0.0,2023-09-26 14:55:34.403
14.0,-187500.02235174447,-140970.03829122047,-26490.549920862904,-28049.807614065125,-24665.88761399837,-19408.60085589896,-187500.02235174447,-31242.50844031673,-13284.446392589378,-19945.176833293062,-1762.658567745515,-41477.19341244619,-31090.94126116529,-33865.17272772464,2182.737253038556,10936.440341048285,0.064,0.988,-0.244,192.0,0.0,0.0,0.0,0.0,0.0,0.0,0.0,0.0,0.0,1695758134.403035,0.0,2023-09-26 14:55:34.403
16.0,-187500.02235174447,-140917.5116917505,-26471.685048542626,-28021.242084651243,-24651.135462657865,-19409.09259427697,-187500.02235174447,-31237.3228356031,-13256.640822486976,-19917.19244923502,-1814.112283481632,-41532.55868346199,-31053.971475836217,-33853.192192696595,2146.3709648097715,10935.278050336608,0.064,0.988,-0.244,192.0,0.0,0.0,0.0,0.0,0.0,0.0,0.0,0.0,0.0,1695758134.462321,0.0,2023-09-26 14:55:34.462
18.0,-187500.02235174447,-140973.21223893313,-26486.61601383877,-28024.68425329736,-24658.08685518347,-19410.74662336667,-187500.02235174447,-31239.60271353754,-13291.263674648248,-19892.0467367228,-1746.0065181263112,-41455.556923813456,-31065.21440329724,-33795.25647106844,2195.43304388917,10944.799893474566,0.068,0.984,-0.242,192.0,1.0,16.0,15.0,96.0,124.0,56.0,0.0,0.0,0.0,1695758134.462346,0.0,2023-09-26 14:55:34.462
20.0,-187500.02235174447,-140940.60104377283,-26465.0465804394,-28010.200322890323,-24655.02466619309,-19422.34717873897,-187500.02235174447,-31240.4744315713,-13259.278328332704,-19848.192614101485,-1826.852777821157,-41538.683061442745,-31075.33974353549,-33855.60618109777,2136.4691420160702,10926.91849791032,0.068,0.984,-0.242,192.0,0.0,0.0,0.0,0.0,0.0,0.0,0.0,0.0,0.0,1695758134.462356,0.0,2023-09-26 14:55:34.462
22.0,-187500.02235174447,-140982.8681925378,-26483.933804504133,-28058.59184963606,-24660.72436102919,-19417.51920193663,-187500.02235174447,-31240.2732658712,-13277.919683208427,-19864.93407069851,-1743.145494836032,-41447.018557431526,-31085.86741517394,-33811.0815061428,2202.9432300261533,10951.393658088882,0.068,0.984,-0.242,192.0,0.0,0.0,0.0,0.0,0.0,0.0,0.0,0.0,0.0,1695758134.462365,0.0,2023-09-26 14:55:34.462
24.0,-187500.02235174447,-140958.10245968134,-26468.444045596607,-28006.73580249975,-24657.796282505547,-19423.39771072837,-187500.02235174447,-31237.456946069837,-13268.442543559378,-19877.205178404474,-1825.712838853936,-41542.63932021133,-31064.14151956338,-33879.12021626475,2143.7558107085006,10921.06234086303,0.068,0.984,-0.242,192.0,0.0,0.0,0.0,0.0,0.0,0.0,0.0,0.0,0.0,1695758134.462374,0.0,2023-09-26 14:55:34.462
26.0,-187500.02235174447,-140978.4648988801,-26464.599545550293,-28019.07396543908,-24645.279305610577,-19412.400652456363,-187500.02235174447,-31235.26647511321,-13264.642747001975,-19846.82915768971,-1730.852035385613,-41440.20127537266,-31072.568127223032,-33868.301971948385,2216.354276699338,10957.920367469833,0.068,0.984,-0.242,192.0,0.0,0.0,0.0,0.0,0.0,0.0,0.0,0.0,0.0,1695758134.462383,0.0,2023-09-26 14:55:34.462
28.0,-187500.02235174447,-140984.9245530277,-26468.935783974623,-28020.079793939567,-24648.766177745605,-19429.45503347576,-187500.02235174447,-31242.016701938715,-13265.447409802367,-19884.558902330267,-1807.1161874671209,-41529.854122382894,-31074.40097026837,-33847.380739138214,2160.0055289275087,10921.084692607486,0.068,0.988,-0.246,192.0,1.0,16.0,15.0,112.0,124.0,40.0,0.0,0.0,0.0,1695758134.462423,0.0,2023-09-26 14:55:34.462
30.0,-187500.02235174447,-140967.98193073057,-26481.497464358505,-28032.373253389986,-24656.63399179387,-19425.45407121826,-187500.02235174447,-31248.56576306412,-13275.39393608498,-19859.6367072626,-1726.9851835948448,-41435.39565031477,-31078.580746481508,-33862.87049804575,2217.069532521908,10949.292594110084,0.068,0.988,-0.246,192.0,0.0,0.0,0.0,0.0,0.0,0.0,0.0,0.0,0.0,1695758134.462432,0.0,2023-09-26 14:55:34.462
32.0,-187500.02235174447,-141022.60959417935,-26468.555804318883,-28009.68623276785,-24654.10824467042,-19411.595989655973,-187500.02235174447,-31233.45598381233,-13260.06063938864,-19902.596760105705,-1801.4835478643836,-41522.83567462393,-31062.64395268488,-33894.54291993892,2159.200866127117,10913.35098902595,0.068,0.988,-0.246,192.0,0.0,0.0,0.0,0.0,0.0,0.0,0.0,0.0,0.0,1695758134.522905,0.0,2023-09-26 14:55:34.522
34.0,-187500.02235174447,-140972.13935519927,-26489.63349934024,-28031.45683186732,-24662.847776752445,-19424.358835739957,-187500.02235174447,-31247.448175841357,-13278.76904949773,-19883.106038940678,-1736.6187854550822,-41442.36939458483,-31078.334877292506,-33892.95594608259,2207.7488550840444,10945.291631852584,0.068,0.988,-0.246,192.0,0.0,0.0,0.0,0.0,0.0,0.0,0.0,0.0,0.0,1695758134.522926,0.0,2023-09-26 14:55:34.522
36.0,-187500.02235174447,-141039.30634728746,-26467.23705139602,-27996.76692447268,-24649.146157401345,-19399.36958543892,-187500.02235174447,-31232.874838456493,-13266.497941791768,-19844.32576231072,-1792.2075739154309,-41510.54221517351,-31072.94810687877,-33879.209623242576,2167.471011575581,10918.134262339385,0.068,0.988,-0.246,192.0,0.0,0.0,0.0,0.0,0.0,0.0,0.0,0.0,0.0,1695758134.522936,0.0,2023-09-26 14:55:34.522
38.0,-187500.02235174447,-140976.16266920124,-26483.26325217048,-28020.504477084218,-24657.773930761094,-19415.64165540238,-187500.02235174447,-31241.010873438227,-13276.91385470794,-19829.81948015922,-1736.0599918436997,-41438.39078407178,-31086.82854018552,-33881.48950117701,2209.849919062844,10953.226501134215,0.064,0.99,-0.248,192.0,1.0,0.0,15.0,120.0,124.0,32.0,0.0,0.0,0.0,1695758134.522945,0.0,2023-09-26 14:55:34.522
40.0,-187500.02235174447,-141034.5901292074,-26475.32838288884,-28011.56377930209,-24659.78558776207,-19423.12948979491,-187500.02235174447,-31238.12749840349,-13283.306453622155,-19873.807713247268,-1776.561352796716,-41493.66664810976,-31081.77704593862,-33908.46805673457,2175.8752674907764,10920.34708504046,0.064,0.99,-0.248,192.0,0.0,0.0,0.0,0.0,0.0,0.0,0.0,0.0,0.0,1695758134.522954,0.0,2023-09-26 14:55:34.522
42.0,-187500.02235174447,-140955.2190846466,-26481.36335389177,-28023.432555607866,-24657.46100633872,-19427.35396949696,-187500.02235174447,-31247.80580375264,-13290.235494403303,-19826.757291168844,-1711.428369453951,-41411.65809770324,-31093.24349084419,-33909.76445791298,2231.307593739938,10959.484989581704,0.064,0.99,-0.248,192.0,0.0,0.0,0.0,0.0,0.0,0.0,0.0,0.0,0.0,1695758134.522964,0.0,2023-09-26 14:55:34.522
44.0,-187500.02235174447,-141050.28105381504,-26468.309935129877,-28013.19545664733,-24651.806014991525,-19421.27429500512,-187500.02235174447,-31245.101242673547,-13284.602854800563,-19864.017649175843,-1756.8024106982243,-41469.05737746446,-31088.415514041844,-33899.28148976344,2193.175517699184,10917.039026861075,0.064,0.99,-0.248,192.0,0.0,0.0,0.0,0.0,0.0,0.0,0.0,0.0,0.0,1695758134.522972,0.0,2023-09-26 14:55:34.522
46.0,-187500.02235174447,-141001.6883613692,-26453.982466934023,-28008.88156996746,-24640.294866597043,-19420.22376301572,-187500.02235174447,-31240.38502459348,-13275.684508762895,-19803.31031123523,-1752.689689718448,-41448.51612431004,-31079.29600230408,-33901.13668455323,2192.214392687606,10934.026352647108,0.064,0.99,-0.248,192.0,0.0,0.0,0.0,0.0,0.0,0.0,0.0,0.0,0.0,1695758134.583129,0.0,2023-09-26 14:55:34.583
48.0,-187500.02235174447,-141095.52098459256,-26452.95428668908,-28006.71345075529,-24644.07231140999,-19412.75828036765,-187500.02235174447,-31239.35684434853,-13290.235494403303,-19813.21213402893,-1768.045338159244,-41475.762900801055,-31084.123979106425,-33909.607995701794,2179.7421192815445,10913.798023915057,0.054,0.994,-0.25,192.0,0.5,88.0,15.5,8.0,124.0,24.0,0.0,0.0,0.0,1695758134.583187,0.0,2023-09-26 14:55:34.583
50.0,-187500.02235174447,-141010.24907949558,-26461.51500481546,-28017.50934332721,-24652.141291158357,-19428.56096369755,-187500.02235174447,-31250.19744040936,-13279.014918686738,-19736.72446450287,-1773.6779777619813,-41475.11470021185,-31090.40481929837,-33899.549710696905,2177.305779135916,10931.768826457122,0.054,0.994,-0.25,192.0,0.0,0.0,0.0,0.0,0.0,0.0,0.0,0.0,0.0,1695758134.5832,0.0,2023-09-26 14:55:34.583
52.0,-187500.02235174447,-141108.75321731012,-26460.97856294853,-28011.094392668536,-24649.235564379163,-19420.91666709384,-187500.02235174447,-31241.994350194254,-13297.209238673358,-19671.099742782088,-1758.0541083877215,-41469.34795014238,-31107.01216542866,-33915.553559726904,2186.4699943625924,10918.40248327285,0.054,0.994,-0.25,192.0,0.0,0.0,0.0,0.0,0.0,0.0,0.0,0.0,0.0,1695758134.583214,0.0,2023-09-26 14:55:34.583
54.0,-187500.02235174447,-141011.4337219517,-26474.21079566608,-28028.864029510503,-24649.570840545995,-19442.977838871226,-187500.02235174447,-31264.457853371845,-13309.01095974576,-19343.154948133822,-1762.1221258785877,-41458.10502268136,-31118.67977603433,-33940.6098652613,2189.7557007975224,10934.8310154475,0.054,0.994,-0.25,192.0,0.0,0.0,0.0,0.0,0.0,0.0,0.0,0.0,0.0,1695758134.583223,0.0,2023-09-26 14:55:34.583
56.0,-187500.02235174447,-141085.7979757545,-26480.67044981366,-28039.01172149321,-24664.65826805333,-19445.45888250576,-187500.02235174447,-31262.736769048784,-13310.53087836872,-19062.81936917536,-1739.882140145557,-41439.262502105536,-31130.92853199584,-33942.04037690644,2202.4514916481367,10921.464672263226,0.054,0.994,-0.25,192.0,0.0,0.0,0.0,0.0,0.0,0.0,0.0,0.0,0.0,1695758134.583232,0.0,2023-09-26 14:55:34.583
58.0,-187500.02235174447,-140972.31816915493,-26493.701516831105,-28055.68612285687,-24678.248128682157,-19466.80479846058,-187500.02235174447,-31281.489882646787,-13332.457939679378,-18808.657682974062,-1745.3806692815626,-41430.2771008345,-31156.54363114162,-33965.71087428461,2209.849919062844,10923.856308919943,0.052,0.986,-0.25,192.0,0.5,80.0,15.0,104.0,124.0,24.0,0.0,0.0,0.0,1695758134.583242,0.0,2023-09-26 14:55:34.583
60.0,-187500.02235174447,-141056.5842457514,-26479.95519399109,-28043.1691459619,-24668.525119844096,-19446.42000751734,-187500.02235174447,-31260.76981553672,-13325.350084942593,-18597.16547693795,-1698.889040814524,-41381.28207698847,-31149.63694210493,-33963.14042367225,2239.801256632955,10919.318904795517,0.052,0.986,-0.25,192.0,0.0,0.0,0.0,0.0,0.0,0.0,0.0,0.0,0.0,1695758134.583252,0.0,2023-09-26 14:55:34.583
62.0,-187500.02235174447,-140961.85755274983,-26489.745258062518,-28057.630724624483,-24682.0255734951,-19467.43064730533,-187500.02235174447,-31279.18765296789,-13334.02256179125,-18381.851122599972,-1743.7489919363252,-41416.28490880548,-31157.63886661993,-33971.65643830972,2212.107445252829,10910.35585526894,0.052,0.986,-0.25,192.0,0.0,0.0,0.0,0.0,0.0,0.0,0.0,0.0,0.0,1695758134.642418,0.0,2023-09-26 14:55:34.642
64.0,-187500.02235174447,-141015.01000106454,-26483.799694037403,-28053.24978271124,-24675.54356760306,-19456.32183031104,-187500.02235174447,-31270.29165867468,-13348.797064876208,-18176.192721866693,-1666.7248805433371,-41326.72146877307,-31179.36476223049,-33981.98294424808,2271.11605061484,10925.108006609442,0.052,0.986,-0.25,192.0,0.0,0.0,0.0,0.0,0.0,0.0,0.0,0.0,0.0,1695758134.642458,0.0,2023-09-26 14:55:34.642
66.0,-187500.02235174447,-140977.63788433527,-26471.30506888689,-28043.660884339915,-24664.278288397585,-19460.59101350201,-187500.02235174447,-31269.107016218542,-13330.334523956124,-17980.167922993653,-1738.943366878434,-41397.57649869639,-31158.935267798337,-33967.007275463024,2217.0918842663627,10898.01769232961,0.052,0.986,-0.25,192.0,0.0,0.0,0.0,0.0,0.0,0.0,0.0,0.0,0.0,1695758134.642468,0.0,2023-09-26 14:55:34.642
68.0,-187500.02235174447,-141021.76022789004,-26478.971717235057,-28050.187593720868,-24682.40555315084,-19454.64544947689,-187500.02235174447,-31271.498652875263,-13341.666858394963,-17777.817580439758,-1674.078604469133,-41321.73702975953,-31152.810889817585,-33974.78568253347,2260.5213237430244,10914.200355315252,0.064,0.986,-0.246,192.0,1.0,0.0,15.0,104.0,124.0,40.0,0.0,0.0,0.0,1695758134.642478,0.0,2023-09-26 14:55:34.642
70.0,-187500.02235174447,-140991.2277449641,-26474.344906132806,-28044.30908492912,-24677.42111413731,-19458.37819080093,-187500.02235174447,-31270.42576914141,-13346.651297408498,-17576.160141963977,-1740.8432651571352,-41385.3724462238,-31154.442567162823,-33979.770121547,2219.639983134268,10893.323825993995,0.064,0.986,-0.246,192.0,0.0,0.0,0.0,0.0,0.0,0.0,0.0,0.0,0.0,1695758134.642525,0.0,2023-09-26 14:55:34.642
72.0,-187500.02235174447,-141015.4793876981,-26485.319612660365,-28056.021399023703,-24686.85355029745,-19453.080827365025,-187500.02235174447,-31267.162414450937,-13353.088599811626,-17283.218179132724,-1671.239932923309,-41301.35223881629,-31154.28610495164,-33982.809958792925,2270.981940148108,10920.615305973924,0.064,0.986,-0.246,192.0,0.0,0.0,0.0,0.0,0.0,0.0,0.0,0.0,0.0,1695758134.642539,0.0,2023-09-26 14:55:34.642
74.0,-187500.02235174447,-141026.63290818132,-26474.27785089944,-28039.01172149321,-24670.40266637834,-19442.79902491558,-187500.02235174447,-31254.779548022696,-13351.613384677576,-17069.066115506426,-1751.0803641176658,-41384.1207485343,-31159.78463408764,-33985.38040940528,2216.689552866167,10886.886523590869,0.064,0.986,-0.246,192.0,0.0,0.0,0.0,0.0,0.0,0.0,0.0,0.0,0.0,1695758134.642548,0.0,2023-09-26 14:55:34.642
76.0,-187500.02235174447,-141036.53473097502,-26478.81525502387,-28045.292561685157,-24669.97798323369,-19442.84372840449,-187500.02235174447,-31257.39470212397,-13343.678515395944,-16887.525247040423,-1690.95417153289,-41310.06941915386,-31150.21808746077,-33987.772046062004,2258.7331841866,10913.73096868169,0.064,0.986,-0.246,192.0,0.0,0.0,0.0,0.0,0.0,0.0,0.0,0.0,0.0,1695758134.702347,0.0,2023-09-26 14:55:34.702
78.0,-187500.02235174447,-141067.26837960107,-26478.01059222348,-28040.576343605084,-24661.037285451566,-19448.409312773863,-187500.02235174447,-31257.08177770159,-13344.21495726287,-16787.232969669458,-1770.9734166828891,-41395.25191727304,-31145.524221125157,-33979.54660410245,2198.8975642797427,10881.47740143268,0.058,0.99,-0.236,192.0,0.5,104.0,15.0,120.0,124.0,80.0,0.0,0.0,0.0,1695758134.702372,0.0,2023-09-26 14:55:34.702
80.0,-187500.02235174447,-140998.5814688899,-26507.1572669932,-28068.404265451944,-24699.10230625896,-19474.76201948667,-187500.02235174447,-31288.441275172387,-13375.97678613386,-16638.593869041666,-1669.4741451113398,-41273.97135185854,-31179.342410486035,-34024.02657556851,2278.603885007368,10925.085654864986,0.058,0.99,-0.236,192.0,0.0,0.0,0.0,0.0,0.0,0.0,0.0,0.0,0.0,1695758134.702383,0.0,2023-09-26 14:55:34.702
82.0,-187500.02235174447,-141042.72616418914,-26487.040696983426,-28039.972846504792,-24689.535759632083,-19457.171196600342,-187500.02235174447,-31268.61527784053,-13373.048707610216,-16559.826321581164,-1725.3758579940627,-41337.58441657834,-31171.005209804203,-34012.89540682977,2240.53886419998,10886.998282313143,0.058,0.99,-0.236,192.0,0.0,0.0,0.0,0.0,0.0,0.0,0.0,0.0,0.0,1695758134.702392,0.0,2023-09-26 14:55:34.702
84.0,-187500.02235174447,-141014.87589059782,-26474.14374043271,-28025.332453886564,-24679.902157771845,-19441.48027199272,-187500.02235174447,-31256.18770792338,-13356.128437057549,-16389.058993942617,-1676.7384620593143,-41267.6905116666,-31156.811852075083,-33998.9255665452,2276.145193117284,10924.482157764693,0.058,0.99,-0.236,192.0,0.0,0.0,0.0,0.0,0.0,0.0,0.0,0.0,0.0,1695758134.702401,0.0,2023-09-26 14:55:34.702
86.0,-187500.02235174447,-141076.052615172,-26468.48874908552,-28017.55404681612,-24680.25978568313,-19436.56288821255,-187500.02235174447,-31246.084719429586,-13352.529806200244,-16263.911576737357,-1744.7771721812694,-41341.540675346936,-31148.18407871533,-33985.38040940528,2228.044239049463,10894.083785305476,0.058,0.99,-0.236,192.0,0.0,0.0,0.0,0.0,0.0,0.0,0.0,0.0,0.0,1695758134.70241,0.0,2023-09-26 14:55:34.702
88.0,-187500.02235174447,-141000.5707741464,-26477.94353699011,-28035.65895982492,-24682.45025663975,-19444.52010923864,-187500.02235174447,-31257.14883293496,-13366.83492265164,-16125.911906470288,-1683.7792615627363,-41261.29791275238,-31160.276372465654,-34000.87016831281,2275.072309383429,10931.522957268116,0.066,0.99,-0.234,192.0,1.0,8.0,15.0,120.0,124.0,88.0,0.0,0.0,0.0,1695758134.702419,0.0,2023-09-26 14:55:34.702
90.0,-187500.02235174447,-141068.47537380163,-26473.42848461014,-28033.446137123843,-24678.493997871163,-19444.698923194283,-187500.02235174447,-31252.052635199147,-13368.421896507967,-16088.763307185567,-1718.1785962794538,-41304.68264874013,-31154.621381118464,-33991.616546108315,2245.903282869254,10898.978817341187,0.066,0.99,-0.234,192.0,0.0,0.0,0.0,0.0,0.0,0.0,0.0,0.0,0.0,1695758134.702429,0.0,2023-09-26 14:55:34.702
92.0,-187500.02235174447,-140987.04796875097,-26480.134007946734,-28046.857183797027,-24683.41138165133,-19454.53369075461,-187500.02235174447,-31263.69789406036,-13383.397565293022,-15950.24954679603,-1671.1281742010326,-41236.733345596,-31166.780730102157,-34011.822523095914,2284.392986821292,10928.773692700111,0.066,0.99,-0.234,192.0,0.0,0.0,0.0,0.0,0.0,0.0,0.0,0.0,0.0,1695758134.762578,0.0,2023-09-26 14:55:34.762
94.0,-187500.02235174447,-141061.5910365094,-26478.81525502387,-28044.286733184665,-24683.18786420677,-19456.70180996678,-187500.02235174447,-31262.22267892631,-13368.913634885985,-15907.647121864216,-1709.5284711752502,-41283.67200895215,-31143.557267613087,-33996.8245025664,2252.117067827829,10892.608570171426,0.066,0.99,-0.234,192.0,0.0,0.0,0.0,0.0,0.0,0.0,0.0,0.0,0.0,1695758134.762601,0.0,2023-09-26 14:55:34.762
96.0,-187500.02235174447,-140996.61451537782,-26471.550938075896,-28038.81055579312,-24668.54747158855,-19446.531766239616,-187500.02235174447,-31254.511327089236,-13370.902940142509,-15826.979676125013,-1679.018339993756,-41237.26978746293,-31151.2015642168,-33996.06454325492,2277.9109809292536,10912.814547159023,0.066,0.99,-0.234,192.0,0.0,0.0,0.0,0.0,0.0,0.0,0.0,0.0,0.0,1695758134.762611,0.0,2023-09-26 14:55:34.762
98.0,-187500.02235174447,-141099.16431893877,-26472.355600876286,-28030.294541155643,-24668.011029721623,-19445.905917394863,-187500.02235174447,-31249.728053775794,-13362.610442949586,-15866.85518823328,-1697.1232530025547,-41268.00343608898,-31145.658331591887,-33978.45136862414,2255.626291707312,10887.266503246608,0.06,0.988,-0.242,192.0,0.5,112.0,15.0,112.0,124.0,56.0,0.0,0.0,0.0,1695758134.76262,0.0,2023-09-26 14:55:34.762
100.0,-187500.02235174447,-141002.40361719177,-26485.09609521581,-28046.521907630195,-24676.23647168117,-19465.888376937917,-187500.02235174447,-31270.85045228606,-13368.734820930342,-15829.930106393113,-1700.2301454818423,-41257.922799339634,-31159.292895709623,-33987.16854896171,2252.474695739114,10902.73391040968,0.06,0.988,-0.242,192.0,0.0,0.0,0.0,0.0,0.0,0.0,0.0,0.0,0.0,1695758134.76263,0.0,2023-09-26 14:55:34.762
102.0,-187500.02235174447,-141069.32474009093,-26495.467304643076,-28052.758044333223,-24687.03236425309,-19465.083714137523,-187500.02235174447,-31273.62206859852,-13392.3606148196,-15864.865882976756,-1671.239932923309,-41231.212464715536,-31164.03146553415,-34000.289022956975,2275.0276058945187,10892.653273660337,0.06,0.988,-0.242,192.0,0.0,0.0,0.0,0.0,0.0,0.0,0.0,0.0,0.0,1695758134.762639,0.0,2023-09-26 14:55:34.762
104.0,-187500.02235174447,-140978.4648988801,-26487.26421442797,-28046.633666352474,-24682.49496012866,-19463.429685047828,-187500.02235174447,-31265.106053961048,-13390.058385140705,-15853.824121215835,-1671.821078279147,-41219.67896457661,-31168.12183476947,-34001.048982268454,2282.984826920608,10905.416119744315,0.06,0.988,-0.242,192.0,0.0,0.0,0.0,0.0,0.0,0.0,0.0,0.0,0.0,1695758134.762648,0.0,2023-09-26 14:55:34.762
106.0,-187500.02235174447,-141087.51906007755,-26468.95813571908,-28024.661901552907,-24671.69906755675,-19436.18290855681,-187500.02235174447,-31243.290751372668,-13380.402431536011,-15792.401527452652,-1657.7394792723037,-41203.183377168585,-31155.53780264113,-33974.62922032228,2286.695216500189,10895.20137252824,0.06,0.988,-0.242,192.0,0.0,0.0,0.0,0.0,0.0,0.0,0.0,0.0,0.0,1695758134.823017,0.0,2023-09-26 14:55:34.823
108.0,-187500.02235174447,-140998.5814688899,-26472.66852529866,-28033.647302823934,-24669.240375666664,-19451.04681861959,-187500.02235174447,-31250.376254365,-13373.36163203259,-15703.843915920725,-1706.3098199736858,-41246.76927885643,-31147.11119498148,-33961.419339349195,2252.3182335279266,10899.559962697023,0.06,0.982,-0.246,192.0,0.5,112.0,15.0,88.0,124.0,40.0,0.0,0.0,0.0,1695758134.823041,0.0,2023-09-26 14:55:34.823
110.0,-187500.02235174447,-141065.81551621147,-26478.81525502387,-28042.811518050614,-24685.55714911904,-19449.817472674546,-187500.02235174447,-31251.583248565585,-13387.197361850423,-15593.47100180042,-1637.5111505402508,-41172.33796982026,-31151.670950850363,-33983.61462159331,2304.59896380889,10910.892297135866,0.06,0.982,-0.246,192.0,0.0,0.0,0.0,0.0,0.0,0.0,0.0,0.0,0.0,1695758134.823052,0.0,2023-09-26 14:55:34.823
112.0,-187500.02235174447,-141012.37249521882,-26467.10294092929,-28034.586076091065,-24676.59409959246,-19452.7902546871,-187500.02235174447,-31251.33737937658,-13376.535579745245,-15480.035898689735,-1702.822947838658,-41237.04627001837,-31149.569886871566,-33964.12390042828,2253.525227728513,10890.462802703716,0.06,0.982,-0.246,192.0,0.0,0.0,0.0,0.0,0.0,0.0,0.0,0.0,0.0,1695758134.823061,0.0,2023-09-26 14:55:34.823
114.0,-187500.02235174447,-141062.95449292118,-26475.44014161112,-28039.99519824925,-24669.30743090003,-19446.8893941509,-187500.02235174447,-31249.61629505352,-13385.11864961608,-15395.591008137586,-1626.536444012695,-41155.10477484522,-31157.124776497458,-33970.65060980924,2307.862318499365,10910.400558757849,0.06,0.982,-0.246,192.0,0.0,0.0,0.0,0.0,0.0,0.0,0.0,0.0,0.0,1695758134.823102,0.0,2023-09-26 14:55:34.823
116.0,-187500.02235174447,-141070.71054824718,-26451.501423299484,-28016.2129421488,-24658.39977960584,-19443.961315627257,-187500.02235174447,-31238.730995503785,-13351.5016259553,-15381.576464364109,-1738.3845732670516,-41268.78574714491,-31118.657424289875,-33932.38442330175,2216.734256355078,10876.515314163604,0.06,0.982,-0.246,192.0,0.0,0.0,0.0,0.0,0.0,0.0,0.0,0.0,0.0,1695758134.823111,0.0,2023-09-26 14:55:34.823
118.0,-187500.02235174447,-141082.69108327522,-26480.916319002667,-28039.145831959944,-24681.06444848352,-19455.807740188568,-187500.02235174447,-31257.014722468222,-13386.146829861023,-15356.453103596345,-1647.569435545139,-41167.80056569584,-31148.318189182068,-33969.22009816409,2285.890553699798,10916.234364060683,0.056,0.986,-0.244,192.0,0.5,96.0,15.0,104.0,124.0,48.0,0.0,0.0,0.0,1695758134.82312,0.0,2023-09-26 14:55:34.823
120.0,-187500.02235174447,-141090.62595255685,-26448.12630988673,-28001.997232675225,-24646.218078877697,-19429.052702075565,-187500.02235174447,-31227.644530253958,-13361.917538871472,-15372.971042748815,-1738.7645529227916,-41264.40480523167,-31127.44165986081,-33933.56906575788,2218.701209867145,10884.941921823254,0.056,0.986,-0.244,192.0,0.0,0.0,0.0,0.0,0.0,0.0,0.0,0.0,0.0,1695758134.823129,0.0,2023-09-26 14:55:34.823
122.0,-187500.02235174447,-141096.3032956485,-26468.75697001898,-28022.337320129554,-24656.07519818249,-19441.100292336974,-187500.02235174447,-31240.29561761565,-13369.248911052811,-15323.596039247042,-1657.694775783393,-41174.4166820546,-31140.96446525627,-33938.93348442716,2277.6427599957897,10925.711503709736,0.056,0.986,-0.244,192.0,0.0,0.0,0.0,0.0,0.0,0.0,0.0,0.0,0.0,1695758134.883176,0.0,2023-09-26 14:55:34.883
124.0,-187500.02235174447,-141086.08854843242,-26466.96883046256,-28019.096317183536,-24663.18305291928,-19450.733894197216,-187500.02235174447,-31245.727091518296,-13376.736745445342,-15357.458932096832,-1727.9239568619678,-41252.58073241481,-31131.44262211831,-33935.133687869755,2230.279413494994,10894.486116705672,0.056,0.986,-0.244,192.0,0.0,0.0,0.0,0.0,0.0,0.0,0.0,0.0,0.0,1695758134.88323,0.0,2023-09-26 14:55:34.883
126.0,-187500.02235174447,-141081.4617373302,-26461.582060048822,-28018.87279973898,-24661.707837785227,-19435.825280645524,-187500.02235174447,-31232.628969267487,-13375.820323922671,-15305.02173960468,-1645.3342610996085,-41150.96970212099,-31135.48828786472,-33944.6108275188,2299.212193395161,10935.12158812542,0.056,0.986,-0.244,192.0,0.0,0.0,0.0,0.0,0.0,0.0,0.0,0.0,0.0,1695758134.88324,0.0,2023-09-26 14:55:34.883
128.0,-187500.02235174447,-141088.99427521162,-26463.169033905157,-28026.49474459824,-24673.59896583545,-19458.53465301212,-187500.02235174447,-31248.878687486493,-13372.69107969893,-15353.882652983984,-1725.085285316144,-41242.99183404349,-31122.68073829183,-33936.22892334806,2246.4173729917256,10895.894276606356,0.054,0.986,-0.242,192.0,0.5,88.0,15.0,104.0,124.0,56.0,0.0,0.0,0.0,1695758134.88325,0.0,2023-09-26 14:55:34.883
130.0,-187500.02235174447,-141074.8903244603,-26463.52666181644,-28025.623026564484,-24662.64661105235,-19448.878699407425,-187500.02235174447,-31240.496783315757,-13384.291635071237,-15283.340547483034,-1636.438266806396,-41137.49160021444,-31138.77399429965,-33944.43201356316,2316.8030162814875,10931.8805851794,0.054,0.986,-0.242,192.0,0.0,0.0,0.0,0.0,0.0,0.0,0.0,0.0,0.0,1695758134.88326,0.0,2023-09-26 14:55:34.883
132.0,-187500.02235174447,-141113.44708364573,-26461.51500481546,-28023.432555607866,-24662.15487267433,-19454.51133901016,-187500.02235174447,-31244.341283362068,-13391.60065550812,-15322.769024702196,-1718.916203846479,-41236.241607217984,-31131.710843051773,-33928.76344069999,2250.3289282714045,10888.16057302482,0.054,0.986,-0.242,192.0,0.0,0.0,0.0,0.0,0.0,0.0,0.0,0.0,0.0,1695758134.883269,0.0,2023-09-26 14:55:34.883
134.0,-187500.02235174447,-141046.99534738009,-26465.38185660623,-28026.762965531703,-24669.12861694439,-19452.03029537562,-187500.02235174447,-31244.76596650672,-13386.415050794489,-15268.610747886987,-1625.7764847012145,-41126.762762875886,-31132.001415729694,-33945.08021415237,2323.6202983403564,10938.563756771537,0.054,0.986,-0.242,192.0,0.0,0.0,0.0,0.0,0.0,0.0,0.0,0.0,0.0,1695758134.883324,0.0,2023-09-26 14:55:34.883
136.0,-187500.02235174447,-141121.53841513855,-26466.85707174028,-28021.93498872936,-24667.09460819896,-19453.03612387611,-187500.02235174447,-31243.961303706328,-13390.416013051989,-15319.773890945184,-1692.3623314335744,-41206.08910394777,-31119.12681092344,-33923.443725519624,2273.328873315916,10893.793212627555,0.054,0.986,-0.242,192.0,0.0,0.0,0.0,0.0,0.0,0.0,0.0,0.0,0.0,1695758134.942513,0.0,2023-09-26 14:55:34.942
138.0,-187500.02235174447,-141047.73295494713,-26460.33036235933,-28019.49864858373,-24661.327858129487,-19450.0409901191,-187500.02235174447,-31241.793184494163,-13384.26928332678,-15264.16275074038,-1637.6899644958933,-41133.55769319031,-31120.512619079665,-33924.94129239813,2318.0547139709847,10929.086617122486,0.058,0.984,-0.24,192.0,0.5,104.0,15.0,96.0,124.0,64.0,0.0,0.0,0.0,1695758134.942537,0.0,2023-09-26 14:55:34.942
140.0,-187500.02235174447,-141131.5519966545,-26472.154435176188,-28021.44325035134,-24670.82734952299,-19454.243118076694,-187500.02235174447,-31247.559934563636,-13392.628835753065,-15291.4095272314,-1681.633494095027,-41190.6216967847,-31124.200656914792,-33923.66724296418,2280.168507119239,10892.407404471329,0.058,0.984,-0.24,192.0,0.0,0.0,0.0,0.0,0.0,0.0,0.0,0.0,0.0,1695758134.942547,0.0,2023-09-26 14:55:34.942
142.0,-187500.02235174447,-141052.0915451159,-26462.654943782683,-28006.75815424421,-24648.855584723424,-19443.11194933796,-187500.02235174447,-31231.13140238898,-13393.70171948692,-15247.913032521372,-1648.7540780012705,-41140.82201013828,-31125.40765111538,-33921.18619932964,2309.784568522521,10926.136186854386,0.058,0.984,-0.24,192.0,0.0,0.0,0.0,0.0,0.0,0.0,0.0,0.0,0.0,1695758134.942556,0.0,2023-09-26 14:55:34.942
144.0,-187500.02235174447,-141141.94555782623,-26463.593717049804,-28007.00402343321,-24666.06642795401,-19442.93313538231,-187500.02235174447,-31231.15375413344,-13394.17110612048,-15274.712774123283,-1673.2962934131974,-41175.53426927737,-31117.606892300475,-33909.675050935155,2288.796280478988,10904.656160432836,0.058,0.984,-0.24,192.0,0.0,0.0,0.0,0.0,0.0,0.0,0.0,0.0,0.0,1695758134.942565,0.0,2023-09-26 14:55:34.942
146.0,-187500.02235174447,-141045.5424839905,-26469.94161247511,-28018.91750322789,-24669.97798323369,-19451.315039553054,-187500.02235174447,-31234.998254179747,-13397.657978255507,-15248.360067410478,-1653.626758292527,-41140.48673397145,-31116.422249844345,-33924.918940653675,2310.209251667172,10926.225593832209,0.058,0.984,-0.24,192.0,0.0,0.0,0.0,0.0,0.0,0.0,0.0,0.0,0.0,1695758134.942574,0.0,2023-09-26 14:55:34.942
148.0,-187500.02235174447,-141156.89887486683,-26459.57040304785,-28006.556988544107,-24662.78072151908,-19439.580373714016,-187500.02235174447,-31223.12947787398,-13393.768774720284,-15276.433858446344,-1658.9241217284348,-41154.12129808919,-31106.87805496193,-33910.54676896892,2297.334646860915,10897.503602207136,0.062,0.984,-0.24,192.0,0.5,120.0,15.0,96.0,124.0,64.0,0.0,0.0,0.0,1695758134.942583,0.0,2023-09-26 14:55:34.942
150.0,-187500.02235174447,-141079.87476347384,-26465.828891495337,-28017.531695071662,-24657.103378427437,-19451.49385350869,-187500.02235174447,-31231.958416933827,-13390.639530496544,-15246.30370692059,-1674.145659702499,-41160.29037955885,-31102.67592700433,-33911.083210835845,2287.4775275561246,10910.06528259102,0.062,0.984,-0.24,192.0,0.0,0.0,0.0,0.0,0.0,0.0,0.0,0.0,0.0,1695758134.942592,0.0,2023-09-26 14:55:34.942
152.0,-187500.02235174447,-141187.09608162596,-26448.215716864557,-27999.38207857395,-24645.525174799583,-19427.041045074588,-187500.02235174447,-31212.378288790977,-13391.846524697128,-15280.88185559295,-1666.6801770544264,-41158.59164698025,-31096.48449379021,-33906.03171658894,2288.9974461790857,10897.861230118422,0.062,0.984,-0.24,192.0,0.0,0.0,0.0,0.0,0.0,0.0,0.0,0.0,0.0,1695758135.002475,0.0,2023-09-26 14:55:35.002
154.0,-187500.02235174447,-141119.92908953776,-26456.28469661292,-28006.244064121733,-24645.90515445533,-19443.78250167161,-187500.02235174447,-31227.823344209595,-13388.158486862005,-15263.469846662265,-1711.9871630653338,-41197.37192361021,-31098.42909555782,-33895.7499141395,2259.1131638423403,10902.77861389859,0.062,0.984,-0.24,192.0,0.0,0.0,0.0,0.0,0.0,0.0,0.0,0.0,0.0,1695758135.002498,0.0,2023-09-26 14:55:35.002
156.0,-187500.02235174447,-141194.78508171858,-26454.72007450105,-28004.433572820853,-24658.10920692792,-19433.165423055343,-187500.02235174447,-31223.17418136289,-13402.016568424291,-15260.318250694068,-1660.0193572067449,-41147.37107126368,-31076.05499935806,-33899.86263511928,2298.02755093903,10912.769843670112,0.062,0.984,-0.24,192.0,0.0,0.0,0.0,0.0,0.0,0.0,0.0,0.0,0.0,1695758135.002543,0.0,2023-09-26 14:55:35.002
158.0,-187500.02235174447,-141132.5131216661,-26455.92706870164,-27997.325718084063,-24657.528061572084,-19437.56871671304,-187500.02235174447,-31224.247065096744,-13384.805725193708,-15261.346430939013,-1712.568308421172,-41197.5730893103,-31080.65945871585,-33896.73339089553,2263.49410575558,10904.097366821452,0.06,0.98,-0.244,192.0,0.5,112.0,15.0,80.0,124.0,48.0,0.0,0.0,0.0,1695758135.002552,0.0,2023-09-26 14:55:35.002
160.0,-187500.02235174447,-141193.4663287957,-26486.99599349451,-28008.568645545085,-24674.73890480267,-19434.41712074484,-187500.02235174447,-31223.55416101863,-13410.286713872758,-15266.77790484165,-1659.147639172988,-41141.179638049565,-31083.63224072841,-33900.89081536422,2299.4804143286246,10908.746529668157,0.06,0.98,-0.244,192.0,0.0,0.0,0.0,0.0,0.0,0.0,0.0,0.0,0.0,1695758135.002562,0.0,2023-09-26 14:55:35.002
162.0,-187500.02235174447,-141123.8629965619,-26465.42656009514,-27996.386944816943,-24664.054770953036,-19437.09933007948,-187500.02235174447,-31219.016756894205,-13387.867914184084,-15270.376535698955,-1711.3389624761298,-41193.34860960825,-31072.188147567293,-33883.45645468908,2269.30555931396,10904.432642988282,0.06,0.98,-0.244,192.0,0.0,0.0,0.0,0.0,0.0,0.0,0.0,0.0,0.0,1695758135.002574,0.0,2023-09-26 14:55:35.002
164.0,-187500.02235174447,-141181.64225597886,-26472.489711343016,-27993.30240408211,-24666.401704120843,-19416.759242625147,-187500.02235174447,-31206.231559065767,-13409.414995839,-15262.843997817516,-1632.5267115267172,-41104.09809399821,-31088.90725241986,-33886.94332682411,2334.416190912269,10932.215861346229,0.06,0.98,-0.244,192.0,0.0,0.0,0.0,0.0,0.0,0.0,0.0,0.0,0.0,1695758135.002583,0.0,2023-09-26 14:55:35.002
166.0,-187500.02235174447,-141172.99213087466,-26457.11171115777,-27971.19652881581,-24641.39010207535,-19413.719405379223,-187500.02235174447,-31198.81077990661,-13382.525847259263,-15299.45615523531,-1732.081381330655,-41210.045362716366,-31044.51668793162,-33868.03375101492,2260.7671929320327,10906.44429998926,0.06,0.98,-0.244,192.0,0.0,0.0,0.0,0.0,0.0,0.0,0.0,0.0,0.0,1695758135.062776,0.0,2023-09-26 14:55:35.062
168.0,-187500.02235174447,-141193.75690147365,-26477.921185245657,-27988.943813913324,-24665.328820386985,-19419.10617579296,-187500.02235174447,-31206.49977999923,-13418.780376765772,-15290.269588264178,-1662.433345607918,-41129.33321348825,-31056.318409004023,-33876.41565518566,2312.019742968052,10935.658029992346,0.056,0.982,-0.242,192.0,0.5,96.0,15.0,88.0,124.0,56.0,0.0,0.0,0.0,1695758135.062804,0.0,2023-09-26 14:55:35.062
170.0,-187500.02235174447,-141172.61215121893,-26490.41581039617,-27997.057497150603,-24680.796227550058,-19435.35589401196,-187500.02235174447,-31217.89916967144,-13405.771661492783,-15327.351132315533,-1722.5148347037834,-41196.38844685417,-31041.365091963424,-33887.70328613559,2273.865315182843,10913.149823325852,0.056,0.982,-0.242,192.0,0.0,0.0,0.0,0.0,0.0,0.0,0.0,0.0,0.0,1695758135.062814,0.0,2023-09-26 14:55:35.062
172.0,-187500.02235174447,-141190.15827061635,-26496.4060779102,-27995.023488405168,-24675.74473330316,-19423.88944910639,-187500.02235174447,-31213.786448691662,-13410.80080399523,-15294.985806344248,-1648.3293948566193,-41108.56844288927,-31024.087193499472,-33881.310687221376,2323.2850221735266,10933.735779969187,0.056,0.982,-0.242,192.0,0.0,0.0,0.0,0.0,0.0,0.0,0.0,0.0,0.0,1695758135.062823,0.0,2023-09-26 14:55:35.062
174.0,-187500.02235174447,-141224.3787913774,-26479.53051084644,-27988.474427279765,-24665.59704132045,-19419.19558277077,-187500.02235174447,-31202.498817741733,-13420.27794364428,-15354.262632639722,-1750.722736206381,-41220.39422039917,-31031.39621393636,-33865.86563180276,2245.545654957969,10883.57846541148,0.056,0.982,-0.242,192.0,0.0,0.0,0.0,0.0,0.0,0.0,0.0,0.0,0.0,1695758135.062832,0.0,2023-09-26 14:55:35.062
176.0,-187500.02235174447,-141223.75294253265,-26475.86482475577,-27984.49581676672,-24660.92552672929,-19408.89142857688,-187500.02235174447,-31197.22380605028,-13397.970902677884,-15290.582512686551,-1674.659749824971,-41129.04264081033,-31008.75389680313,-33865.776224824935,2306.141234176306,10933.69107648028,0.056,0.982,-0.242,192.0,0.0,0.0,0.0,0.0,0.0,0.0,0.0,0.0,0.0,1695758135.062841,0.0,2023-09-26 14:55:35.062
178.0,-187500.02235174447,-141263.44964068528,-26468.935783974623,-27984.473465022264,-24675.811788536525,-19421.631922916404,-187500.02235174447,-31201.85061715253,-13401.167202134991,-15358.822388508606,-1772.8286114726798,-41239.12498225272,-31033.631388381888,-33873.73344585102,2231.4864076955805,10886.975930568688,0.06,0.986,-0.244,192.0,0.5,112.0,15.0,104.0,124.0,48.0,0.0,0.0,0.0,1695758135.062884,0.0,2023-09-26 14:55:35.062
180.0,-187500.02235174447,-141188.05720663755,-26492.31570867488,-27987.893281923927,-24681.13150371689,-19420.89431534938,-187500.02235174447,-31207.952643388828,-13405.70460625942,-15298.718547668284,-1682.7957848067028,-41128.55090243231,-31033.586684892976,-33869.53131789342,2302.9672864636527,10937.9826114157,0.06,0.986,-0.244,192.0,0.0,0.0,0.0,0.0,0.0,0.0,0.0,0.0,0.0,1695758135.062894,0.0,2023-09-26 14:55:35.062
182.0,-187500.02235174447,-141234.01239323764,-26493.52270287546,-27988.139151112933,-24679.745695560658,-19418.435623459296,-187500.02235174447,-31208.89141665595,-13411.89603947354,-15338.549356287642,-1723.4759597153616,-41177.07653964478,-31036.53711516108,-33852.81221304086,2279.7214722301333,10912.367512269915,0.06,0.986,-0.244,192.0,0.0,0.0,0.0,0.0,0.0,0.0,0.0,0.0,0.0,1695758135.122996,0.0,2023-09-26 14:55:35.122
184.0,-187500.02235174447,-141162.95619761423,-26535.1640027957,-28009.30625311211,-24707.081879029494,-19436.764053912648,-187500.02235174447,-31234.104184401534,-13439.723961320396,-15316.890515910449,-1665.048499709189,-41097.7501985729,-31042.505030930643,-33882.18240525513,2326.995411753108,10937.759093971144,0.06,0.986,-0.244,192.0,0.0,0.0,0.0,0.0,0.0,0.0,0.0,0.0,0.0,1695758135.123018,0.0,2023-09-26 14:55:35.123
186.0,-187500.02235174447,-141261.2368179842,-26466.81236825137,-27962.792272900617,-24673.26368966862,-19396.55326563755,-187500.02235174447,-31194.58630020455,-13417.282809887269,-15356.386048362978,-1721.5090062032946,-41164.2689900719,-31026.322367945,-33847.13486994921,2284.080062398918,10898.420023729805,0.06,0.986,-0.244,192.0,0.0,0.0,0.0,0.0,0.0,0.0,0.0,0.0,0.0,1695758135.123028,0.0,2023-09-26 14:55:35.123
188.0,-187500.02235174447,-141187.7666339596,-26511.024118783967,-28000.410258818894,-24689.759277076635,-19432.24900153268,-187500.02235174447,-31225.02937615268,-13422.334304134169,-15320.600905490031,-1704.8122530951805,-41132.66362341209,-31011.883141026872,-33869.30780044887,2299.368655606348,10924.772730442612,0.062,0.99,-0.242,192.0,0.5,120.0,15.0,120.0,124.0,56.0,0.0,0.0,0.0,1695758135.123037,0.0,2023-09-26 14:55:35.123
190.0,-187500.02235174447,-141250.10564924547,-26469.628688052737,-27979.10904635299,-24689.46870439872,-19416.535725180594,-187500.02235174447,-31206.432724765866,-13422.22254541189,-15367.003126979247,-1709.0367327972333,-41145.1135450737,-31044.20376350925,-33859.338922421804,2303.12374867484,10908.34419826796,0.062,0.99,-0.242,192.0,0.0,0.0,0.0,0.0,0.0,0.0,0.0,0.0,0.0,1695758135.123047,0.0,2023-09-26 14:55:35.123
192.0,-187500.02235174447,-141190.3147328275,-26483.35265914829,-27994.44234304933,-24697.00124228016,-19417.630960658906,-187500.02235174447,-31207.99734687774,-13429.6209728266,-15343.757312745727,-1705.013418795278,-41125.13108553065,-31041.4768506857,-33857.70724507657,2309.091664444407,10923.006942630642,0.062,0.99,-0.242,192.0,0.0,0.0,0.0,0.0,0.0,0.0,0.0,0.0,0.0,1695758135.123056,0.0,2023-09-26 14:55:35.123
194.0,-187500.02235174447,-141282.38156823892,-26507.73841234904,-28012.189628146843,-24703.68441387229,-19424.26942876213,-187500.02235174447,-31209.78548643416,-13449.178749224991,-15407.593894910086,-1719.2291282688534,-41146.275835785375,-31026.590588878465,-33879.813120342864,2299.592173050901,10895.335482994971,0.062,0.99,-0.242,192.0,0.0,0.0,0.0,0.0,0.0,0.0,0.0,0.0,0.0,1695758135.123064,0.0,2023-09-26 14:55:35.123
196.0,-187500.02235174447,-141208.50905281413,-26496.22726395455,-27998.085677395546,-24689.759277076635,-19411.86421058944,-187500.02235174447,-31198.251986295225,-13476.336118738189,-15372.255786926244,-1731.947270863923,-41141.93959736104,-31038.682882628786,-33864.97156202454,2291.12086190234,10904.9243813663,0.062,0.99,-0.242,192.0,0.0,0.0,0.0,0.0,0.0,0.0,0.0,0.0,0.0,1695758135.183278,0.0,2023-09-26 14:55:35.183
198.0,-187500.02235174447,-141293.49038523322,-26511.471153673072,-28024.371328874982,-24717.07310880102,-19425.766995640635,-187500.02235174447,-31214.1664283474,-13458.61118538513,-15408.376205966022,-1723.274794015264,-41135.39053623564,-31052.80918512454,-33865.776224824935,2297.9157922167533,10899.358796996929,0.068,0.984,-0.244,192.0,1.0,16.0,15.0,96.0,124.0,48.0,0.0,0.0,0.0,1695758135.183343,0.0,2023-09-26 14:55:35.183
200.0,-187500.02235174447,-141233.81122753755,-26453.624839022737,-27968.067284592067,-24679.65628858284,-19390.78651556808,-187500.02235174447,-31184.148035543923,-13450.832778314683,-15398.653197127964,-1751.147419351032,-41151.14851607663,-31034.547809904558,-33855.27090493094,2279.922637930231,10901.079881319987,0.068,0.984,-0.244,192.0,0.0,0.0,0.0,0.0,0.0,0.0,0.0,0.0,0.0,1695758135.183356,0.0,2023-09-26 14:55:35.183
202.0,-187500.02235174447,-141300.33001903654,-26458.832795480823,-27972.29176429412,-24695.615434123927,-19389.780687067592,-187500.02235174447,-31178.64950640792,-13396.026300910273,-15374.625071838507,-1726.5381487057386,-41136.9104548586,-31048.070615300017,-33818.61404402424,2296.8876119718093,10924.01277113113,0.068,0.984,-0.244,192.0,0.0,0.0,0.0,0.0,0.0,0.0,0.0,0.0,0.0,1695758135.183365,0.0,2023-09-26 14:55:35.183
204.0,-187500.02235174447,-141238.99683225117,-26504.787982080936,-27998.42095356237,-24720.18000128031,-19412.467707689728,-187500.02235174447,-31198.69902118433,-13444.127254978092,-15394.071089514626,-1755.5060095198166,-41154.43422251156,-31051.5798391795,-33843.64799781418,2286.8069752224656,10922.761073441634,0.068,0.984,-0.244,192.0,0.0,0.0,0.0,0.0,0.0,0.0,0.0,0.0,0.0,1695758135.183374,0.0,2023-09-26 14:55:35.183
206.0,-187500.02235174447,-141307.72844645125,-26537.555639452417,-28012.63666303595,-24742.17411782433,-19416.625132158417,-187500.02235174447,-31205.158675331917,-13516.032816890816,-15436.04766560169,-1737.401096511018,-41126.69570764253,-31070.86939464443,-33870.42538767164,2292.372559591837,10897.995340585154,0.068,0.984,-0.244,192.0,0.0,0.0,0.0,0.0,0.0,0.0,0.0,0.0,0.0,1695758135.183383,0.0,2023-09-26 14:55:35.183
208.0,-187500.02235174447,-141229.7432100467,-26550.34083728085,-28026.85237250953,-24748.410254527364,-19429.00799858665,-187500.02235174447,-31216.289844070656,-13491.535304967798,-15438.081674347124,-1775.555524296227,-41156.5129347459,-31090.605984998467,-33869.77718708244,2275.005254150064,10898.73294815218,0.07,0.984,-0.248,192.0,1.0,24.0,15.0,96.0,124.0,32.0,0.0,0.0,0.0,1695758135.183392,0.0,2023-09-26 14:55:35.183
210.0,-187500.02235174447,-141278.33590249252,-26484.783170793435,-28000.67847975236,-24712.89333258788,-19396.419155170817,-187500.02235174447,-31190.49593096923,-13469.652947146053,-15444.183700583424,-1701.459491426884,-41078.21477391896,-31090.315412320542,-33864.457471902075,2330.9069670327863,10911.987532614176,0.07,0.984,-0.248,192.0,0.0,0.0,0.0,0.0,0.0,0.0,0.0,0.0,0.0,1695758135.183402,0.0,2023-09-26 14:55:35.183
212.0,-187500.02235174447,-141262.39910869588,-26506.59847338181,-28003.71831699828,-24722.214010025746,-19402.968216296224,-187500.02235174447,-31184.75153264422,-13426.916411747505,-15475.498494565309,-1782.8421929886572,-41168.7169872185,-31116.31049112207,-33843.625646069726,2272.1889343486946,10889.233456758671,0.07,0.984,-0.248,192.0,0.0,0.0,0.0,0.0,0.0,0.0,0.0,0.0,0.0,1695758135.242667,0.0,2023-09-26 14:55:35.242
214.0,-187500.02235174447,-141309.76245519667,-26504.519761147472,-28001.37138383048,-24729.925361862825,-19385.98089051019,-187500.02235174447,-31190.406523991413,-13509.14847959858,-15469.932910195936,-1738.7645529227916,-41112.18942549103,-31106.96746193975,-33857.97546601003,2299.368655606348,10896.386014984371,0.07,0.984,-0.248,192.0,0.0,0.0,0.0,0.0,0.0,0.0,0.0,0.0,0.0,1695758135.242694,0.0,2023-09-26 14:55:35.242
216.0,-187500.02235174447,-141278.47001295927,-26484.58200509334,-28005.618215276983,-24744.118719591945,-19405.27044597512,-187500.02235174447,-31211.46186726831,-13395.735728232352,-15477.376041099556,-1804.0987019656543,-41183.69265600356,-31140.048043733605,-33841.36811987974,2257.63794870829,10886.238323001662,0.07,0.984,-0.248,192.0,0.0,0.0,0.0,0.0,0.0,0.0,0.0,0.0,0.0,1695758135.242709,0.0,2023-09-26 14:55:35.242
218.0,-187500.02235174447,-141306.49910050622,-26500.2058744676,-28005.59586353253,-24746.577411482027,-19386.472628888205,-187500.02235174447,-31192.30642227011,-13470.43525820199,-15409.04675829968,-1738.943366878434,-41105.05921900979,-31165.93136381285,-33855.38266365322,2302.542603319002,10901.862192375922,0.076,0.98,-0.25,192.0,1.0,48.0,15.0,80.0,124.0,24.0,0.0,0.0,0.0,1695758135.242718,0.0,2023-09-26 14:55:35.242
220.0,-187500.02235174447,-141301.17938532584,-26539.522592964484,-28024.907770741916,-24765.822263458045,-19422.481289205705,-187500.02235174447,-31210.143114345447,-13474.14564778157,-15426.726988163828,-1814.849891048657,-41184.98905718196,-31153.839070062528,-33851.06877697334,2247.467904981125,10872.983738539666,0.076,0.98,-0.25,192.0,0.0,0.0,0.0,0.0,0.0,0.0,0.0,0.0,0.0,1695758135.242767,0.0,2023-09-26 14:55:35.242
222.0,-187500.02235174447,-141303.2357458157,-26503.71509834708,-28008.88156996746,-24749.93017315032,-19393.64753885836,-187500.02235174447,-31187.88077686796,-13437.444083385955,-15394.741641848284,-1743.5031227473169,-41096.31968692776,-31162.93623005584,-33843.2903699029,2284.951780432675,10901.862192375922,0.076,0.98,-0.25,192.0,0.0,0.0,0.0,0.0,0.0,0.0,0.0,0.0,0.0,1695758135.242777,0.0,2023-09-26 14:55:35.242
224.0,-187500.02235174447,-141314.14339710993,-26529.665473659694,-28019.92333172838,-24781.781408999137,-19412.26654198963,-187500.02235174447,-31195.12274207148,-13487.3331770102,-15449.481064019332,-1830.943147056478,-41187.26893511641,-31201.56004447461,-33856.09791947579,2209.894622551754,10867.753430337125,0.076,0.98,-0.25,192.0,0.0,0.0,0.0,0.0,0.0,0.0,0.0,0.0,0.0,1695758135.242786,0.0,2023-09-26 14:55:35.242
226.0,-187500.02235174447,-141272.32328323406,-26514.555694407907,-28008.412183333898,-24759.36260931046,-19404.1305070079,-187500.02235174447,-31186.27145126718,-13446.98827826837,-15370.735868303283,-1747.9511198939229,-41081.07579720924,-31192.35112575902,-33851.247590928986,2266.3551290458595,10914.803852415544,0.076,0.98,-0.25,192.0,0.0,0.0,0.0,0.0,0.0,0.0,0.0,0.0,0.0,1695758135.30231,0.0,2023-09-26 14:55:35.302
228.0,-187500.02235174447,-141318.03260064515,-26543.411796499706,-28025.332453886564,-24784.888301478422,-19422.391882227887,-187500.02235174447,-31196.70971592781,-13483.15340079706,-15410.320807733631,-1825.4222661760173,-41160.33508304776,-31226.32577733109,-33862.8928497902,2201.1550904697287,10871.441468172248,0.066,0.982,-0.252,192.0,1.0,8.0,15.0,88.0,124.0,16.0,0.0,0.0,0.0,1695758135.30235,0.0,2023-09-26 14:55:35.302
230.0,-187500.02235174447,-141264.41076569687,-26536.95214235212,-28016.727032271272,-24783.949528211306,-19411.774803611614,-187500.02235174447,-31183.343372743533,-13470.65877564654,-15281.3065387376,-1768.7829457262692,-41077.05248320728,-31241.882591471986,-33855.11444271975,2231.017021062019,10911.093462835965,0.066,0.982,-0.252,192.0,0.0,0.0,0.0,0.0,0.0,0.0,0.0,0.0,0.0,1695758135.30236,0.0,2023-09-26 14:55:35.302
232.0,-187500.02235174447,-141329.38728682845,-26537.421528985684,-28007.83103797806,-24772.57249028355,-19405.382204697395,-187500.02235174447,-31174.58148891705,-13482.080517063205,-15270.64475663242,-1849.293929254285,-41162.3690917932,-31248.006969452737,-33860.72473057803,2153.18824686864,10862.277252945572,0.066,0.982,-0.252,192.0,0.0,0.0,0.0,0.0,0.0,0.0,0.0,0.0,0.0,1695758135.30237,0.0,2023-09-26 14:55:35.302
234.0,-187500.02235174447,-141282.82860312803,-26518.28843573194,-27993.347107571022,-24760.97193491125,-19396.240341215176,-187500.02235174447,-31166.668971379877,-13476.313766993737,-15158.818979122518,-1803.562260098727,-41092.51989037036,-31237.591056536563,-33845.97257923753,2180.4573751041144,10909.01475060162,0.066,0.982,-0.252,192.0,0.0,0.0,0.0,0.0,0.0,0.0,0.0,0.0,0.0,1695758135.302378,0.0,2023-09-26 14:55:35.302
236.0,-187500.02235174447,-141382.56208688763,-26549.78204366947,-28011.20615139081,-24774.450036817798,-19410.388995455385,-187500.02235174447,-31168.79238710313,-13519.072654136737,-15166.217406537226,-1880.698130213992,-41173.29909483184,-31254.533678833686,-33845.61495132625,2104.8190718673554,10865.85353205842,0.066,0.982,-0.252,192.0,0.0,0.0,0.0,0.0,0.0,0.0,0.0,0.0,0.0,1695758135.302387,0.0,2023-09-26 14:55:35.302
238.0,-187500.02235174447,-141304.12981559394,-26519.271912487977,-28003.226578620262,-24765.50933903567,-19413.674701890315,-187500.02235174447,-31169.038256292137,-13512.545944755788,-15056.850320917409,-1864.8060399062683,-41131.54603618933,-31273.107978476048,-33847.805422282865,2107.166005035163,10893.72615739419,0.064,0.982,-0.25,192.0,1.0,0.0,15.0,88.0,124.0,24.0,0.0,0.0,0.0,1695758135.302396,0.0,2023-09-26 14:55:35.302
240.0,-187500.02235174447,-141370.33568267056,-26541.422491243186,-28020.61623580649,-24789.29159513612,-19430.28204802061,-187500.02235174447,-31186.60672743401,-13504.029930118317,-15017.868878587353,-1882.888601170612,-41153.29428354434,-31293.515121163746,-33859.9424195221,2084.6577983686684,10882.237360744162,0.064,0.982,-0.25,192.0,0.0,0.0,0.0,0.0,0.0,0.0,0.0,0.0,0.0,1695758135.302406,0.0,2023-09-26 14:55:35.302
242.0,-187500.02235174447,-141278.22414377023,-26510.398269939215,-27997.59393901753,-24773.086580406023,-19415.84282110248,-187500.02235174447,-31172.59218366053,-13523.028912905324,-14915.564944215412,-1863.263769538852,-41108.21081497798,-31297.91841482144,-33867.586716125814,2098.7841008644227,10902.041006331565,0.064,0.982,-0.25,192.0,0.0,0.0,0.0,0.0,0.0,0.0,0.0,0.0,0.0,1695758135.362676,0.0,2023-09-26 14:55:35.362
244.0,-187500.02235174447,-141382.9197147989,-26546.742206423547,-28013.01664269169,-24794.2536824052,-19429.23151603121,-187500.02235174447,-31185.60089893352,-13514.62465699013,-14873.118981494785,-1896.9702001774551,-41141.91724561659,-31280.12642623501,-33856.32143692034,2058.5956643337804,10870.726212349678,0.064,0.982,-0.25,192.0,0.0,0.0,0.0,0.0,0.0,0.0,0.0,0.0,0.0,1695758135.362701,0.0,2023-09-26 14:55:35.362
246.0,-187500.02235174447,-141272.0997657895,-26541.131918565265,-28013.77660200317,-24787.548159068607,-19434.394769000384,-187500.02235174447,-31190.630041435965,-13511.897744166585,-14808.83536444132,-1902.4016740800944,-41121.51010292889,-31319.10786856507,-33870.22422197154,2054.304129398361,10887.177096268786,0.064,0.982,-0.25,192.0,0.0,0.0,0.0,0.0,0.0,0.0,0.0,0.0,0.0,1695758135.362711,0.0,2023-09-26 14:55:35.362
248.0,-187500.02235174447,-141359.78565928765,-26537.0639010744,-27999.73970648524,-24775.098237407,-19408.64555938787,-187500.02235174447,-31167.63009639145,-13525.308790839768,-14815.876163944742,-1874.841973166701,-41088.8989077686,-31290.69880136237,-33866.35737018077,2069.592722605792,10886.90887533532,0.064,0.98,-0.248,192.0,1.0,0.0,15.0,80.0,124.0,32.0,0.0,0.0,0.0,1695758135.36272,0.0,2023-09-26 14:55:35.362
250.0,-187500.02235174447,-141301.0005713702,-26531.274799260475,-27999.896168696425,-24775.65703101838,-19413.294722234576,-187500.02235174447,-31163.53972715613,-13498.084366093204,-14798.017120124952,-1927.52503484786,-41125.62282390867,-31288.262461216746,-33840.49640184598,2024.4421988060712,10892.563866682514,0.064,0.98,-0.248,192.0,0.0,0.0,0.0,0.0,0.0,0.0,0.0,0.0,0.0,1695758135.36273,0.0,2023-09-26 14:55:35.362
252.0,-187500.02235174447,-141379.76811883072,-26515.069784530377,-27986.976860401257,-24761.351914566985,-19402.65529187385,-187500.02235174447,-31157.482404408744,-13529.130939141623,-14793.92675088963,-1908.302534616296,-41099.717152084966,-31317.00680458627,-33844.385605381205,2030.320707597817,10893.659102160824,0.064,0.98,-0.248,192.0,0.0,0.0,0.0,0.0,0.0,0.0,0.0,0.0,0.0,1695758135.362739,0.0,2023-09-26 14:55:35.362
254.0,-187500.02235174447,-141294.0491788446,-26551.369017525794,-28019.275131139177,-24773.600670528493,-19438.753359169168,-187500.02235174447,-31184.393904732933,-13532.081369409723,-14796.139573590706,-1946.9263490350663,-41123.29824248532,-31295.258557231256,-33873.04054177291,2003.811538673823,10896.54247719556,0.064,0.98,-0.248,192.0,0.0,0.0,0.0,0.0,0.0,0.0,0.0,0.0,0.0,1695758135.362748,0.0,2023-09-26 14:55:35.362
0.0,-187500.02235174447,-141355.82940051908,-26537.60034294133,-28007.92044495588,-24770.024391415645,-19421.69897814977,-187500.02235174447,-31170.848747593016,-13544.30777362678,-14809.662378986166,-1895.651447254592,-41056.98061668642,-31312.692917906395,-33877.8461668308,2031.773570987412,10895.469593461705,0.064,0.98,-0.248,192.0,0.0,0.0,0.0,0.0,0.0,0.0,0.0,0.0,0.0,1695758135.423095,0.0,2023-09-26 14:55:35.423
2.0,-187500.02235174447,-141311.59529824203,-26539.500241220027,-28010.334433357053,-24785.33533636753,-19431.84667013248,-187500.02235174447,-31175.11793078398,-13519.698502981486,-14793.30090204488,-1955.7999915838236,-41109.70838185649,-31297.516083421244,-33863.92103003514,1984.6337419311692,10886.283026490572,0.064,0.98,-0.256,192.0,1.0,0.0,15.0,80.0,124.0,0.0,0.0,0.0,0.0,1695758135.423121,0.0,2023-09-26 14:55:35.423
4.0,-187500.02235174447,-141366.84881053554,-26499.803543067403,-27988.943813913324,-24756.47923427573,-19405.806887842045,-187500.02235174447,-31151.603895617,-13511.182488344011,-14754.498273670468,-1897.394883322106,-41036.46171527645,-31308.379031226523,-33856.679064831624,2018.7872074588784,10903.560924954523,0.064,0.98,-0.256,192.0,0.0,0.0,0.0,0.0,0.0,0.0,0.0,0.0,0.0,1695758135.423132,0.0,2023-09-26 14:55:35.423
6.0,-187500.02235174447,-141347.8051242596,-26522.9599503231,-27997.63864250644,-24774.651202517893,-19424.560001440048,-187500.02235174447,-31163.53972715613,-13539.591555546707,-14739.522604885413,-1977.972922083488,-41113.01644003588,-31305.450952702875,-33849.03476822791,1958.1245730071755,10883.48905843366,0.064,0.98,-0.256,192.0,0.0,0.0,0.0,0.0,0.0,0.0,0.0,0.0,0.0,1695758135.423141,0.0,2023-09-26 14:55:35.423
8.0,-187500.02235174447,-141363.20547618932,-26518.646063643228,-28003.24893036472,-24772.23721411672,-19425.565829940537,-187500.02235174447,-31171.4075412044,-13593.302797472812,-14727.564421601825,-1910.1353776616309,-41026.15756108255,-31291.74933335177,-33863.831623057325,2002.358675284228,10904.991436599665,0.064,0.98,-0.256,192.0,0.0,0.0,0.0,0.0,0.0,0.0,0.0,0.0,0.0,1695758135.423187,0.0,2023-09-26 14:55:35.423
10.0,-187500.02235174447,-141348.60978706,-26523.608150912303,-28004.746497243228,-24772.460731561277,-19431.42198698783,-187500.02235174447,-31171.251078993213,-13590.151201504614,-14747.166901489129,-1971.6026749137252,-41085.70260831149,-31309.07193530464,-33863.47399514604,1966.4170702000945,10890.775727126089,0.064,0.98,-0.256,192.0,0.0,0.0,0.0,0.0,0.0,0.0,0.0,0.0,0.0,1695758135.423197,0.0,2023-09-26 14:55:35.423
12.0,-187500.02235174447,-141354.73416504075,-26525.999787569024,-28002.958357686803,-24760.72606572224,-19420.35787348245,-187500.02235174447,-31163.919706811877,-13644.778864953383,-14729.82194779181,-1923.3229068902624,-41013.41706674303,-31322.61709244455,-33866.58088762533,1999.095320593753,10906.489003478173,0.064,0.982,-0.258,192.0,1.0,0.0,15.0,88.0,123.5,120.0,0.0,0.0,0.0,1695758135.423206,0.0,2023-09-26 14:55:35.423
14.0,-187500.02235174447,-141368.7710605587,-26541.467194732097,-28013.329567114062,-24796.108877194987,-19443.335466782508,-187500.02235174447,-31175.31909648408,-13590.21825673798,-14746.96573578903,-1987.5618204548143,-41082.26043966537,-31323.30999652267,-33859.137756721706,1953.587168882748,10886.640654401855,0.064,0.982,-0.258,192.0,0.0,0.0,0.0,0.0,0.0,0.0,0.0,0.0,0.0,1695758135.423216,0.0,2023-09-26 14:55:35.423
16.0,-187500.02235174447,-141343.69240327983,-26531.118337049287,-28013.709546769805,-24770.225557115744,-19426.973989841223,-187500.02235174447,-31164.79142484563,-13629.065588601305,-14715.29331389586,-1918.941964977022,-40987.98078155289,-31313.16230453996,-33898.58858568533,2000.9952188724544,10906.511355222628,0.064,0.982,-0.258,192.0,0.0,0.0,0.0,0.0,0.0,0.0,0.0,0.0,0.0,1695758135.48311,0.0,2023-09-26 14:55:35.483
18.0,-187500.02235174447,-141379.43284266387,-26536.14747955173,-27997.191607617333,-24778.227481630744,-19423.017731072632,-187500.02235174447,-31159.42700617636,-13590.35236720471,-14730.313686169826,-1999.58705897177,-41073.45385234998,-31311.15064753898,-33853.46041363006,1939.036183242343,10868.714555348704,0.064,0.982,-0.258,192.0,0.0,0.0,0.0,0.0,0.0,0.0,0.0,0.0,0.0,1695758135.483132,0.0,2023-09-26 14:55:35.483
20.0,-187500.02235174447,-141325.0510484041,-26535.320465006887,-28009.127439156466,-24778.540406053115,-19431.913725365845,-187500.02235174447,-31169.015904547683,-13577.678928098552,-14649.690943919531,-1922.630002812148,-40970.5687726222,-31314.7939818852,-33869.687780104614,1998.447120004549,10914.401521015348,0.064,0.982,-0.258,192.0,0.0,0.0,0.0,0.0,0.0,0.0,0.0,0.0,0.0,1695758135.483141,0.0,2023-09-26 14:55:35.483
22.0,-187500.02235174447,-141393.0674067816,-26488.135932461733,-27970.59303171552,-24758.93792616581,-19413.629998401404,-187500.02235174447,-31154.37551192945,-13560.892768012616,-14679.016432644896,-1995.519041480904,-41048.50930553786,-31310.502446949777,-33858.4895561325,1940.28788093184,10871.799096083534,0.058,0.982,-0.266,192.0,0.5,104.0,15.0,88.0,123.5,88.0,0.0,0.0,0.0,1695758135.483151,0.0,2023-09-26 14:55:35.483
24.0,-187500.02235174447,-141321.0053826577,-26530.805412626916,-28017.35288111602,-24774.539443795617,-19434.014789344645,-187500.02235174447,-31170.088788281537,-13568.827637294253,-14616.766824336866,-1936.8904157746333,-40966.9701417649,-31316.760935397266,-33862.42346315664,1979.068157561798,10911.16051806933,0.058,0.982,-0.266,192.0,0.0,0.0,0.0,0.0,0.0,0.0,0.0,0.0,0.0,1695758135.48316,0.0,2023-09-26 14:55:35.483
26.0,-187500.02235174447,-141390.54165965816,-26517.215551998088,-28002.332508842053,-24774.785312984623,-19432.42781548832,-187500.02235174447,-31161.483366666245,-13567.01714599337,-14658.13990332364,-1978.1964395280409,-41011.04778183076,-31307.127333537024,-33860.16593696665,1945.2723199453735,10880.695090376748,0.058,0.982,-0.266,192.0,0.0,0.0,0.0,0.0,0.0,0.0,0.0,0.0,0.0,1695758135.48317,0.0,2023-09-26 14:55:35.483
28.0,-187500.02235174447,-141319.39605705693,-26525.48569744655,-28009.84269497904,-24770.15850188237,-19440.69796093678,-187500.02235174447,-31172.055741793603,-13605.797422623327,-14623.628809884643,-1954.9059218056111,-40962.05275798473,-31319.689013920903,-33875.87921331873,1959.420974185583,10901.325750508997,0.058,0.982,-0.266,192.0,0.0,0.0,0.0,0.0,0.0,0.0,0.0,0.0,0.0,1695758135.483205,0.0,2023-09-26 14:55:35.483
30.0,-187500.02235174447,-141385.37840668898,-26510.77824959496,-28000.723183241276,-24764.682324490823,-19436.31701902354,-187500.02235174447,-31166.981895802248,-13590.709995115996,-14670.90274940762,-1986.7348059099684,-40994.88747058958,-31343.515973510264,-33864.18925096861,1934.6328895846475,10877.565846153004,0.058,0.982,-0.266,192.0,0.0,0.0,0.0,0.0,0.0,0.0,0.0,0.0,0.0,1695758135.542524,0.0,2023-09-26 14:55:35.542
32.0,-187500.02235174447,-141311.26002207518,-26536.72862490757,-28017.08466018256,-24782.09433342151,-19447.157615084365,-187500.02235174447,-31183.36572448799,-13571.755715817895,-14619.024350526852,-1950.6590903591027,-40935.5659408052,-31319.733717409817,-33852.11930896274,1965.6347591441584,10915.58616347148,0.058,0.972,-0.27,192.0,0.5,104.0,15.0,48.0,123.5,72.0,0.0,0.0,0.0,1695758135.542551,0.0,2023-09-26 14:55:35.542
34.0,-187500.02235174447,-141419.26365128325,-26518.57900840986,-28000.70083149681,-24753.32763830753,-19430.572620698527,-187500.02235174447,-31166.37839870196,-13600.388300465143,-14674.791952942844,-1993.261515290918,-40980.11296750462,-31349.908572424483,-33873.822852828845,1928.5979185817143,10870.301529205028,0.058,0.972,-0.27,192.0,0.0,0.0,0.0,0.0,0.0,0.0,0.0,0.0,0.0,1695758135.542561,0.0,2023-09-26 14:55:35.542
36.0,-187500.02235174447,-141300.48648124773,-26547.099834334836,-28021.622064306983,-24779.054496175588,-19460.747475713197,-187500.02235174447,-31191.010021091704,-13599.02484405337,-14612.922324290554,-1982.0409395743536,-40947.94880723344,-31355.27299109376,-33857.8413555433,1942.9924420109323,10902.44333773176,0.058,0.972,-0.27,192.0,0.0,0.0,0.0,0.0,0.0,0.0,0.0,0.0,0.0,1695758135.54257,0.0,2023-09-26 14:55:35.542
38.0,-187500.02235174447,-141409.0265523227,-26525.217476513088,-28006.244064121733,-24769.063266404068,-19439.37920801392,-187500.02235174447,-31179.431817463854,-13616.190983795046,-14661.939699881044,-1979.1128610507085,-40937.24232163934,-31314.30224350718,-33883.03177154443,1942.6571658441028,10868.580444881967,0.058,0.972,-0.27,192.0,0.0,0.0,0.0,0.0,0.0,0.0,0.0,0.0,0.0,1695758135.542579,0.0,2023-09-26 14:55:35.542
40.0,-187500.02235174447,-141315.81977794407,-26507.403136182205,-28006.042898421638,-24766.17989136933,-19449.14692034089,-187500.02235174447,-31182.181082031857,-13545.447712594,-14608.206106210484,-1997.5083467374263,-40944.12665893158,-31339.17973508593,-33834.75200352097,1929.5366918488376,10889.38991896986,0.058,0.972,-0.27,192.0,0.0,0.0,0.0,0.0,0.0,0.0,0.0,0.0,0.0,1695758135.542588,0.0,2023-09-26 14:55:35.542
42.0,-187500.02235174447,-141430.61833746653,-26505.235016970044,-27986.32865981205,-24758.535594765617,-19421.900143849867,-187500.02235174447,-31161.41631143288,-13541.670267781052,-14623.360588951182,-1971.6026749137252,-40918.80213246372,-31319.75606915427,-33836.24957039947,1943.7971048113236,10883.667872389302,0.058,0.972,-0.262,192.0,0.5,104.0,15.0,48.0,123.5,104.0,0.0,0.0,0.0,1695758135.542597,0.0,2023-09-26 14:55:35.542
44.0,-187500.02235174447,-141332.29301360765,-26523.786964867948,-28002.35486058651,-24766.51516753616,-19454.80191168808,-187500.02235174447,-31190.92061411388,-13571.912178029082,-14605.300379431294,-2020.9553266710436,-40957.42594688248,-31334.01648211676,-33846.64313157119,1905.5085665593824,10880.650386887835,0.058,0.972,-0.262,192.0,0.0,0.0,0.0,0.0,0.0,0.0,0.0,0.0,0.0,1695758135.542607,0.0,2023-09-26 14:55:35.542
46.0,-187500.02235174447,-141433.50171250125,-26539.34377900884,-28010.69206126834,-24780.9990979432,-19442.486100493206,-187500.02235174447,-31189.75832340221,-13561.272747668356,-14614.308132446782,-1962.460811431505,-40895.95864963039,-31311.12829579453,-33859.02599799943,1943.6406426001363,10885.701881134735,0.058,0.972,-0.262,192.0,0.0,0.0,0.0,0.0,0.0,0.0,0.0,0.0,0.0,1695758135.602424,0.0,2023-09-26 14:55:35.602
48.0,-187500.02235174447,-141355.04708946313,-26521.507086933507,-28003.65126176492,-24765.822263458045,-19449.236327318707,-187500.02235174447,-31187.053762323118,-13595.940303318535,-14613.36935917966,-2027.549091285359,-40953.62615032508,-31326.90862737997,-33861.88702128971,1894.5338600318264,10868.312223948506,0.058,0.972,-0.262,192.0,0.0,0.0,0.0,0.0,0.0,0.0,0.0,0.0,0.0,1695758135.602447,0.0,2023-09-26 14:55:35.602
50.0,-187500.02235174447,-141398.34241847307,-26520.210685755097,-27996.87868319496,-24769.130321637436,-19434.864155633943,-187500.02235174447,-31172.50277668271,-13572.672137340563,-14589.296530401294,-1953.6318723716583,-40873.22692551934,-31311.15064753898,-33836.31662563284,1953.743631093935,10895.179020783786,0.058,0.972,-0.262,192.0,0.0,0.0,0.0,0.0,0.0,0.0,0.0,0.0,0.0,1695758135.602489,0.0,2023-09-26 14:55:35.602
52.0,-187500.02235174447,-141362.98195874476,-26513.66162462969,-28002.93600594235,-24776.17112114085,-19458.065266378555,-187500.02235174447,-31187.70196291232,-13523.67711349453,-14597.253751427384,-2011.522890510904,-40929.53096980226,-31325.209894801366,-33833.94734072058,1916.7291422759463,10885.7689363681,0.058,0.976,-0.268,192.0,0.5,104.0,15.0,64.0,123.5,80.0,0.0,0.0,0.0,1695758135.602499,0.0,2023-09-26 14:55:35.602
54.0,-187500.02235174447,-141414.90506111443,-26515.069784530377,-27975.845691662515,-24773.734780995223,-19424.582353184505,-187500.02235174447,-31172.189852260337,-13592.699300372518,-14588.357757134172,-1952.9613200379997,-40854.65262587698,-31317.90087436448,-33844.810288525856,1952.000195026421,10891.647445159846,0.058,0.976,-0.268,192.0,0.0,0.0,0.0,0.0,0.0,0.0,0.0,0.0,0.0,1695758135.602509,0.0,2023-09-26 14:55:35.602
56.0,-187500.02235174447,-141390.49695616926,-26498.015403510977,-27968.179043314343,-24762.625964000938,-19431.354931754464,-187500.02235174447,-31179.275355252663,-13501.615941717142,-14575.46080058346,-2031.840626220778,-40937.64465303953,-31280.70757159085,-33806.16412236263,1894.4444530540052,10886.01480555711,0.058,0.976,-0.268,192.0,0.0,0.0,0.0,0.0,0.0,0.0,0.0,0.0,0.0,1695758135.602518,0.0,2023-09-26 14:55:35.602
58.0,-187500.02235174447,-141418.39193324948,-26549.424415758185,-28000.656128007908,-24791.41501085937,-19451.47150176424,-187500.02235174447,-31198.967242117797,-13566.5030558709,-14574.723193016434,-1961.6561486311136,-40852.12687875353,-31296.264385731745,-33837.30010238887,1941.517226876882,10903.046834832054,0.058,0.976,-0.268,192.0,0.0,0.0,0.0,0.0,0.0,0.0,0.0,0.0,0.0,1695758135.602527,0.0,2023-09-26 14:55:35.602
60.0,-187500.02235174447,-141425.4327327529,-26507.73841234904,-27982.037124876635,-24771.745475738702,-19442.664914448847,-187500.02235174447,-31183.49983495472,-13551.326221385743,-14588.827143767732,-2058.93094050061,-40949.15580143402,-31287.18957748289,-33826.57126505033,1866.974159118433,10859.349174421928,0.058,0.976,-0.268,192.0,0.0,0.0,0.0,0.0,0.0,0.0,0.0,0.0,0.0,1695758135.662818,0.0,2023-09-26 14:55:35.662
62.0,-187500.02235174447,-141405.15970053192,-26531.520668449484,-27999.27031985168,-24770.024391415645,-19462.870891436447,-187500.02235174447,-31198.229634550768,-13556.333012143734,-14536.993448375875,-1958.7727735963792,-40829.8868930205,-31316.96210109736,-33829.58875055179,1944.7805815673569,10901.839840631466,0.068,0.986,-0.266,192.0,1.0,16.0,15.0,104.0,123.5,88.0,0.0,0.0,0.0,1695758135.662842,0.0,2023-09-26 14:55:35.662
64.0,-187500.02235174447,-141441.39187829397,-26532.571200438884,-27999.516189040685,-24775.254699618185,-19462.51326352516,-187500.02235174447,-31204.242253809247,-13528.48273855242,-14552.282041583305,-2042.1447804146744,-40915.76229521779,-31276.41603665543,-33826.8841894727,1884.162650604564,10866.971119281188,0.068,0.986,-0.266,192.0,0.0,0.0,0.0,0.0,0.0,0.0,0.0,0.0,0.0,1695758135.662853,0.0,2023-09-26 14:55:35.662
66.0,-187500.02235174447,-141414.79330239218,-26543.97059011109,-28005.797029232628,-24784.06128693358,-19449.884527907918,-187500.02235174447,-31197.89435838394,-13577.58952112073,-14524.565878458723,-1972.452041203027,-40826.7352970523,-31307.328499237123,-33846.687835060104,1930.363706393684,10894.15084053884,0.068,0.986,-0.266,192.0,0.0,0.0,0.0,0.0,0.0,0.0,0.0,0.0,0.0,1695758135.662862,0.0,2023-09-26 14:55:35.662
68.0,-187500.02235174447,-141451.53957027668,-26520.88123808876,-27982.10418011,-24785.04476368961,-19441.94965862628,-187500.02235174447,-31184.013925077197,-13563.083238969237,-14547.632878736602,-2042.7929810038784,-40906.73219045785,-31291.48111241831,-33834.34967212077,1872.6738539545363,10858.38804941035,0.068,0.986,-0.266,192.0,0.0,0.0,0.0,0.0,0.0,0.0,0.0,0.0,0.0,1695758135.662871,0.0,2023-09-26 14:55:35.662
70.0,-187500.02235174447,-141410.99350583478,-26517.372014209275,-28005.55116004362,-24771.745475738702,-19461.75330421368,-187500.02235174447,-31192.41818099239,-13545.425360849544,-14502.035320047777,-1966.841753344745,-40812.92191897892,-31278.830025056606,-33847.42544262713,1923.3229068902624,10897.503602207136,0.068,0.986,-0.266,192.0,0.0,0.0,0.0,0.0,0.0,0.0,0.0,0.0,0.0,1695758135.66288,0.0,2023-09-26 14:55:35.662
72.0,-187500.02235174447,-141506.97189652585,-26536.661569674205,-28007.40635483341,-24784.91065322288,-19443.447225504784,-187500.02235174447,-31181.577584931565,-13525.15232862858,-14541.799073433767,-2036.847416978767,-40897.03153336424,-31265.843661528077,-33782.96301161802,1860.5815602042155,10857.091648231944,0.066,0.982,-0.272,192.0,1.0,8.0,15.0,88.0,123.5,64.0,0.0,0.0,0.0,1695758135.662922,0.0,2023-09-26 14:55:35.662
74.0,-187500.02235174447,-141441.3471748051,-26526.424470713675,-27979.01963937517,-24780.306193865086,-19437.61342020195,-187500.02235174447,-31176.50373894021,-13592.699300372518,-14503.577590415192,-2010.3829515436832,-40848.70706185187,-31235.579399535585,-33844.76558503695,1872.3385777877068,10875.889465318854,0.066,0.982,-0.272,192.0,0.0,0.0,0.0,0.0,0.0,0.0,0.0,0.0,0.0,1695758135.662932,0.0,2023-09-26 14:55:35.662
76.0,-187500.02235174447,-141531.08942879314,-26528.234962014554,-27979.01963937517,-24766.60457451398,-19431.824318388022,-187500.02235174447,-31168.92649756986,-13493.591665457689,-14510.752500385344,-2047.0174607059316,-40896.31627754167,-31239.13332690398,-33796.66463096913,1844.0636210517432,10866.211159969707,0.066,0.982,-0.272,192.0,0.0,0.0,0.0,0.0,0.0,0.0,0.0,0.0,0.0,1695758135.723113,0.0,2023-09-26 14:55:35.723
78.0,-187500.02235174447,-141445.0352126402,-26521.887066589246,-27984.58522374454,-24780.57441479855,-19442.642562704397,-187500.02235174447,-31181.64464016493,-13507.561505742253,-14461.131627694564,-2006.2478788194517,-40834.44664888938,-31241.65907402743,-33805.73943921798,1873.1879440770083,10901.81748888701,0.066,0.982,-0.272,192.0,0.0,0.0,0.0,0.0,0.0,0.0,0.0,0.0,0.0,1695758135.723147,0.0,2023-09-26 14:55:35.723
80.0,-187500.02235174447,-141529.658917148,-26568.937488667667,-28018.80574450561,-24812.693871580825,-19456.679458222327,-187500.02235174447,-31190.65239318042,-13611.050082570326,-14526.82340464871,-2046.4139636056384,-40873.40573947498,-31250.063329942623,-33829.65580578516,1842.521350684327,10856.085819731454,0.066,0.982,-0.272,192.0,0.0,0.0,0.0,0.0,0.0,0.0,0.0,0.0,0.0,1695758135.723157,0.0,2023-09-26 14:55:35.723
82.0,-187500.02235174447,-141415.84383438158,-26495.891987787723,-27961.048836833103,-24773.01952517265,-19429.11975730893,-187500.02235174447,-31162.243325977724,-13503.62759871812,-14443.943136208432,-2001.933992139577,-40812.27371838972,-31238.19455363686,-33799.81622693732,1879.781708691324,10901.862192375922,0.062,0.99,-0.268,192.0,0.5,120.0,15.0,120.0,123.5,80.0,0.0,0.0,0.0,1695758135.723166,0.0,2023-09-26 14:55:35.723
84.0,-187500.02235174447,-141542.1982457874,-26544.328218022376,-27989.36849705797,-24797.159409184387,-19442.2402313042,-187500.02235174447,-31177.956602329807,-13519.3408750702,-14459.745819538335,-2008.840681176267,-40824.99186098479,-31245.19064965137,-33780.21374705002,1869.7010719419804,10886.148916023842,0.062,0.99,-0.268,192.0,0.0,0.0,0.0,0.0,0.0,0.0,0.0,0.0,0.0,1695758135.723175,0.0,2023-09-26 14:55:35.723
86.0,-187500.02235174447,-141439.62609048202,-26510.3088629614,-27982.10418011,-24777.176949641344,-19437.546364968584,-187500.02235174447,-31172.83805284954,-13573.789724563328,-14453.196758412929,-2046.838646750289,-40845.242541461295,-31226.169315119903,-33800.21855833752,1836.7098971259472,10878.169343253296,0.062,0.99,-0.268,192.0,0.0,0.0,0.0,0.0,0.0,0.0,0.0,0.0,0.0,1695758135.723184,0.0,2023-09-26 14:55:35.723
88.0,-187500.02235174447,-141537.61613817408,-26523.40698521221,-27990.195511602826,-24769.443246059807,-19445.41417901685,-187500.02235174447,-31170.82639584856,-13557.607061577686,-14493.139325754562,-2011.9252219110992,-40813.74893352377,-31228.493896543256,-33801.20203509355,1858.3240340142293,10878.146991508842,0.062,0.99,-0.268,192.0,0.0,0.0,0.0,0.0,0.0,0.0,0.0,0.0,0.0,1695758135.723193,0.0,2023-09-26 14:55:35.723
90.0,-187500.02235174447,-141467.8786954735,-26511.96289205109,-28001.907825697403,-24765.50933903567,-19440.09446383649,-187500.02235174447,-31169.440587692334,-13525.10762513967,-14452.61561305709,-2045.162265916141,-40834.78192505621,-31242.12846066099,-33789.73559018798,1832.3289552127071,10886.215971257208,0.062,0.99,-0.268,192.0,0.0,0.0,0.0,0.0,0.0,0.0,0.0,0.0,0.0,1695758135.783248,0.0,2023-09-26 14:55:35.783
92.0,-187500.02235174447,-141547.87558887908,-26503.67039485817,-27978.706714952797,-24765.934022180325,-19435.75822541216,-187500.02235174447,-31163.807948089598,-13556.645936566109,-14467.658337075512,-2022.6317075051916,-40810.95496546686,-31218.45796328282,-33772.30122951284,1845.0023943188664,10885.34425322345,0.06,0.984,-0.266,192.0,0.5,112.0,15.0,96.0,123.5,88.0,0.0,0.0,0.0,1695758135.783274,0.0,2023-09-26 14:55:35.783
94.0,-187500.02235174447,-141472.21493389786,-26522.78113636746,-28004.54533154313,-24780.730877009737,-19452.142054097894,-187500.02235174447,-31177.91189884089,-13604.299855744825,-14457.912976492998,-2064.7647458034453,-40841.28628269271,-31206.030393365672,-33826.32539586132,1817.3085829387408,10874.369546695894,0.06,0.984,-0.266,192.0,0.0,0.0,0.0,0.0,0.0,0.0,0.0,0.0,0.0,1695758135.78333,0.0,2023-09-26 14:55:35.783
96.0,-187500.02235174447,-141540.54421669772,-26470.790978764413,-27975.86804340697,-24749.70665570577,-19431.22082128773,-187500.02235174447,-31150.128680482947,-13531.63433452062,-14420.026769641254,-2000.615239216714,-40780.13190986299,-31246.688216529878,-33781.66661043961,1861.855609638168,10899.627017930392,0.06,0.984,-0.266,192.0,0.0,0.0,0.0,0.0,0.0,0.0,0.0,0.0,0.0,1695758135.783339,0.0,2023-09-26 14:55:35.783
98.0,-187500.02235174447,-141477.98168396731,-26529.598418426325,-27999.11385764049,-24788.57633931355,-19474.873778208945,-187500.02235174447,-31189.60186119102,-13533.2436601214,-14389.583693693125,-2063.7589173029564,-40839.05110824718,-31240.005044937738,-33783.41004650713,1816.816844560724,10879.644558387346,0.06,0.984,-0.266,192.0,0.0,0.0,0.0,0.0,0.0,0.0,0.0,0.0,0.0,1695758135.783353,0.0,2023-09-26 14:55:35.783
100.0,-187500.02235174447,-141533.39165847204,-26549.178546569176,-28004.36651758749,-24783.52484506665,-19452.454978520276,-187500.02235174447,-31180.951736086816,-13602.3105504883,-14363.074524769132,-1991.383968756672,-40752.79572639415,-31200.6659746964,-33823.82200048232,1868.7622986748577,10890.216933514706,0.06,0.984,-0.266,192.0,0.0,0.0,0.0,0.0,0.0,0.0,0.0,0.0,0.0,1695758135.783362,0.0,2023-09-26 14:55:35.783
102.0,-187500.02235174447,-141498.79115805522,-26509.14657224972,-27993.749438971216,-24774.695906006804,-19457.908804167368,-187500.02235174447,-31171.318134226574,-13568.380602405145,-14338.487605868291,-2076.1194319867413,-40837.4417826464,-31216.759230704218,-33811.2826718429,1804.3445711546624,10863.797171568534,0.064,0.976,-0.27,192.0,1.0,0.0,15.0,64.0,123.5,72.0,0.0,0.0,0.0,1695758135.783371,0.0,2023-09-26 14:55:35.783
104.0,-187500.02235174447,-141524.67447813446,-26518.44489794313,-27996.4092965614,-24784.17304565585,-19435.691170178798,-187500.02235174447,-31162.28802946664,-13571.509846628887,-14285.089288364565,-1974.2625325039069,-40727.024165037175,-31188.30546001261,-33785.22053780801,1876.9430371455,10903.382110998882,0.064,0.976,-0.27,192.0,0.0,0.0,0.0,0.0,0.0,0.0,0.0,0.0,0.0,1695758135.783381,0.0,2023-09-26 14:55:35.783
106.0,-187500.02235174447,-141516.76196059727,-26518.66841538768,-27978.550252741607,-24755.27224007514,-19450.108045352463,-187500.02235174447,-31162.220974233267,-13556.377715632643,-14321.477928337805,-2069.324501672328,-40831.5856255991,-31202.02943110817,-33789.33325878778,1799.8742222636013,10867.507561148115,0.064,0.976,-0.27,192.0,0.0,0.0,0.0,0.0,0.0,0.0,0.0,0.0,0.0,1695758135.842627,0.0,2023-09-26 14:55:35.842
108.0,-187500.02235174447,-141507.9553732819,-26506.41965942617,-27982.282994065645,-24766.448112302794,-19435.80292890107,-187500.02235174447,-31158.175308486854,-13566.63716633763,-14302.121317639509,-1982.711491908013,-40734.377888962976,-31219.977881905783,-33804.84536943977,1861.877961382623,10900.565791197514,0.064,0.976,-0.27,192.0,0.0,0.0,0.0,0.0,0.0,0.0,0.0,0.0,0.0,1695758135.842649,0.0,2023-09-26 14:55:35.842
110.0,-187500.02235174447,-141517.11958850856,-26522.24469450053,-28005.506456554707,-24783.144865410908,-19458.288783823107,-187500.02235174447,-31167.004247546705,-13568.268843682868,-14347.69652458388,-2046.615129305736,-40805.27762237521,-31237.65811176993,-33810.94739567606,1820.4825306513944,10876.001224041132,0.064,0.976,-0.27,192.0,0.0,0.0,0.0,0.0,0.0,0.0,0.0,0.0,0.0,1695758135.842659,0.0,2023-09-26 14:55:35.842
112.0,-187500.02235174447,-141503.06034124616,-26491.33223191884,-27967.26262179168,-24749.88546966141,-19431.064359076543,-187500.02235174447,-31140.58448560053,-13582.506904900898,-14338.84523377958,-1965.590055655248,-40705.38767640444,-31202.878797397472,-33768.479081210986,1880.698130213992,10911.451090747249,0.064,0.98,-0.262,192.0,1.0,0.0,15.0,80.0,123.5,104.0,0.0,0.0,0.0,1695758135.842668,0.0,2023-09-26 14:55:35.842
114.0,-187500.02235174447,-141577.24578109334,-26502.105772746298,-27979.73489519774,-24768.48212104823,-19449.102216851978,-187500.02235174447,-31148.005264759693,-13551.326221385743,-14383.7945918792,-2072.833725551811,-40825.86357901854,-31179.6106314195,-33792.7754274339,1793.9063064940342,10862.500770390126,0.064,0.98,-0.262,192.0,0.0,0.0,0.0,0.0,0.0,0.0,0.0,0.0,0.0,1695758135.842737,0.0,2023-09-26 14:55:35.842
116.0,-187500.02235174447,-141508.82709131564,-26510.890008317238,-28008.412183333898,-24765.889318691414,-19472.68330725233,-187500.02235174447,-31174.201509261315,-13602.087033043746,-14374.250396996786,-1988.9923320999544,-40722.062077768096,-31201.3141752856,-33818.390526579686,1861.5650369602488,10899.045872574554,0.064,0.98,-0.262,192.0,0.0,0.0,0.0,0.0,0.0,0.0,0.0,0.0,0.0,1695758135.842746,0.0,2023-09-26 14:55:35.842
118.0,-187500.02235174447,-141538.04082131875,-26489.43233364014,-27968.26845029217,-24759.67553373284,-19437.34519926849,-187500.02235174447,-31148.944038026817,-13567.866512282671,-14436.634115771549,-2036.422733834116,-40779.75193020725,-31205.22573056528,-33807.616985752225,1830.1831877449977,10865.9652907807,0.064,0.98,-0.262,192.0,0.0,0.0,0.0,0.0,0.0,0.0,0.0,0.0,0.0,1695758135.842756,0.0,2023-09-26 14:55:35.842
120.0,-187500.02235174447,-141514.19150998493,-26534.895781862237,-27999.20326461831,-24768.90680419288,-19456.38888554441,-187500.02235174447,-31163.83029983405,-13573.096820485214,-14382.56524593416,-1971.53561968036,-40696.64814432242,-31169.66410513689,-33803.347802561264,1876.2724848118407,10901.191640042263,0.064,0.98,-0.262,192.0,0.0,0.0,0.0,0.0,0.0,0.0,0.0,0.0,0.0,1695758135.902556,0.0,2023-09-26 14:55:35.902
122.0,-187500.02235174447,-141583.28075209627,-26501.681089601647,-27974.59399397302,-24760.010809899668,-19441.636734203905,-187500.02235174447,-31146.865325792474,-13564.06671572527,-14458.628232315568,-2039.6190332912247,-40775.99683713876,-31183.11985529898,-33784.54998547435,1819.0967224951653,10861.38318316736,0.066,0.972,-0.258,192.0,1.0,8.0,15.0,48.0,123.5,120.0,0.0,0.0,0.0,1695758135.902602,0.0,2023-09-26 14:55:35.902
124.0,-187500.02235174447,-141511.97868728384,-26510.375918194764,-27985.747514456216,-24754.13230110792,-19446.174138328333,-187500.02235174447,-31148.02761650415,-13571.308680928789,-14457.421238114985,-2001.1740328280969,-40715.35655443151,-31206.186855576856,-33803.63837523918,1852.490228711394,10892.608570171426,0.066,0.972,-0.258,192.0,0.0,0.0,0.0,0.0,0.0,0.0,0.0,0.0,0.0,1695758135.902614,0.0,2023-09-26 14:55:35.902
126.0,-187500.02235174447,-141600.73746451587,-26515.53917116394,-27976.87387190746,-24749.70665570577,-19441.36851327044,-187500.02235174447,-31137.008206487684,-13579.981157777447,-14484.086869250164,-2027.616146518725,-40753.935665361365,-31190.13830305795,-33796.575223991305,1836.262862236841,10873.095497261942,0.066,0.972,-0.258,192.0,0.0,0.0,0.0,0.0,0.0,0.0,0.0,0.0,0.0,1695758135.902624,0.0,2023-09-26 14:55:35.902
128.0,-187500.02235174447,-141481.0885764466,-26516.8579240868,-27997.79510471763,-24777.10989440797,-19463.005001903177,-187500.02235174447,-31159.42700617636,-13627.79153916735,-14478.81185755871,-2004.8844224076777,-40713.92604278637,-31206.477428254777,-33840.65286405717,1857.5417229582931,10894.843744616956,0.066,0.972,-0.258,192.0,0.0,0.0,0.0,0.0,0.0,0.0,0.0,0.0,0.0,1695758135.902633,0.0,2023-09-26 14:55:35.902
130.0,-187500.02235174447,-141582.54314452925,-26487.06304872788,-27960.1994705438,-24750.0419318726,-19421.587219427493,-187500.02235174447,-31122.144296424904,-13557.830579022238,-14518.68736966698,-2000.4587770055268,-40715.06598175359,-31202.163541574904,-33806.81232295183,1863.84491489469,10881.231532243672,0.066,0.972,-0.258,192.0,0.0,0.0,0.0,0.0,0.0,0.0,0.0,0.0,0.0,1695758135.902642,0.0,2023-09-26 14:55:35.902
132.0,-187500.02235174447,-141515.89024256353,-26553.78300592697,-28013.2625118807,-24778.361592097477,-19460.881586179923,-187500.02235174447,-31150.73217758324,-13581.791649078328,-14512.183012030484,-2009.1759573430968,-40709.36628691749,-31154.397863673912,-33818.27876785741,1859.2181037924413,10895.8719248619,0.062,0.972,-0.262,192.0,0.5,120.0,15.0,48.0,123.5,104.0,0.0,0.0,0.0,1695758135.902652,0.0,2023-09-26 14:55:35.902
134.0,-187500.02235174447,-141595.88713596907,-26464.487786828016,-27952.599877428995,-24747.337370793502,-19428.9856468422,-187500.02235174447,-31120.49026733521,-13578.841218810228,-14556.439466051992,-2009.332419554284,-40715.33420268705,-31170.267602237174,-33818.14465739067,1854.501885712372,10872.067317016998,0.062,0.972,-0.262,192.0,0.0,0.0,0.0,0.0,0.0,0.0,0.0,0.0,0.0,1695758135.902661,0.0,2023-09-26 14:55:35.902
136.0,-187500.02235174447,-141537.43732421845,-26513.97454905207,-27982.21593883228,-24747.2926673046,-19444.698923194283,-187500.02235174447,-31134.102479708494,-13567.173608204555,-14526.488128481882,-2018.228413847496,-40721.41387717889,-31200.576567718577,-33798.63158448119,1851.46204846645,10896.49777370665,0.062,0.972,-0.262,192.0,0.0,0.0,0.0,0.0,0.0,0.0,0.0,0.0,0.0,1695758135.963552,0.0,2023-09-26 14:55:35.963
138.0,-187500.02235174447,-141609.4769965979,-26456.843490224303,-27945.13439478092,-24727.220800783733,-19423.353007239464,-187500.02235174447,-31109.403802085377,-13596.32028297428,-14571.102210414674,-2014.2721550789065,-40719.759848089205,-31131.68849130732,-33825.76660224993,1851.0373653217991,10877.632901386369,0.062,0.972,-0.262,192.0,0.0,0.0,0.0,0.0,0.0,0.0,0.0,0.0,0.0,1695758135.963573,0.0,2023-09-26 14:55:35.963
140.0,-187500.02235174447,-141555.09520233813,-26517.84140084284,-27989.837883691536,-24767.20807161428,-19450.57743198603,-187500.02235174447,-31139.55630535559,-13606.155050534611,-14567.414172579549,-2035.2157396335288,-40731.226292994776,-31184.639773921943,-33805.56062526234,1850.0538885657656,10895.626055672892,0.062,0.972,-0.262,192.0,0.0,0.0,0.0,0.0,0.0,0.0,0.0,0.0,0.0,1695758135.963583,0.0,2023-09-26 14:55:35.963
142.0,-187500.02235174447,-141615.6237263231,-26502.418697168672,-27971.218880560267,-24764.727027979738,-19434.014789344645,-187500.02235174447,-31129.83329651753,-13605.126870289669,-14620.14193774962,-2007.3207625533064,-40703.10779847,-31163.45032017831,-33839.781146023415,1865.1636678175528,10884.33842472296,0.06,0.972,-0.266,192.0,0.5,112.0,15.0,48.0,123.5,88.0,0.0,0.0,0.0,1695758135.963592,0.0,2023-09-26 14:55:35.963
144.0,-187500.02235174447,-141554.98344361587,-26480.58104283584,-27956.3996739864,-24748.1420335939,-19433.14307131089,-187500.02235174447,-31123.28423539212,-13550.141578929612,-14612.855269057189,-2035.9756989450095,-40738.11063028701,-31180.102369797514,-33795.792912935365,1848.8021908762685,10896.989512084663,0.06,0.972,-0.266,192.0,0.0,0.0,0.0,0.0,0.0,0.0,0.0,0.0,0.0,1695758135.963602,0.0,2023-09-26 14:55:35.963
146.0,-187500.02235174447,-141620.67522057,-26500.09411574532,-27957.405502486887,-24749.349027794484,-19421.028425816112,-187500.02235174447,-31121.943130724805,-13628.640905456652,-14640.146749037118,-1979.58224768427,-40678.56558305807,-31147.759395570683,-33825.6324917832,1887.649522739592,10901.281047020084,0.06,0.972,-0.266,192.0,0.0,0.0,0.0,0.0,0.0,0.0,0.0,0.0,0.0,1695758135.963611,0.0,2023-09-26 14:55:35.963
148.0,-187500.02235174447,-141571.6131414906,-26494.3050139314,-27954.83505187453,-24763.743551223703,-19433.27718177762,-187500.02235174447,-31128.69335755031,-13579.64588161062,-14653.222519543471,-2041.6530420366576,-40742.33510998906,-31175.050875550616,-33791.36726753322,1847.8857693536008,10892.809735871522,0.06,0.972,-0.266,192.0,0.0,0.0,0.0,0.0,0.0,0.0,0.0,0.0,0.0,1695758135.96362,0.0,2023-09-26 14:55:35.963
150.0,-187500.02235174447,-141615.24374666737,-26507.64900537121,-27971.91178463838,-24766.269298347157,-19447.604649973477,-187500.02235174447,-31136.09178496501,-13601.997626065926,-14691.153429884129,-1977.5258871943815,-40665.95919918528,-31163.562078900588,-33846.10668970426,1891.8740024416447,10900.476384219694,0.06,0.972,-0.266,192.0,0.0,0.0,0.0,0.0,0.0,0.0,0.0,0.0,0.0,1695758135.963629,0.0,2023-09-26 14:55:35.963
152.0,-187500.02235174447,-141615.4672641119,-26505.235016970044,-27961.942906611315,-24756.725103464734,-19436.04879809008,-187500.02235174447,-31127.709880794275,-13631.859556658215,-14757.359296960749,-2059.8250102788224,-40750.7170141598,-31171.899279582416,-33841.03284371291,1829.847911578168,10865.42884891377,0.058,0.972,-0.264,192.0,0.5,104.0,15.0,48.0,123.5,96.0,0.0,0.0,0.0,1695758136.023957,0.0,2023-09-26 14:55:36.023
154.0,-187500.02235174447,-141648.45843892795,-26496.8531127993,-27970.570679971064,-24748.164385338358,-19425.25290551817,-187500.02235174447,-31121.965482469262,-13605.059815056304,-14757.761628360944,-1992.8815356351777,-40675.39163534542,-31187.389038489942,-33822.726765004016,1874.8196214222455,10894.39670972785,0.058,0.972,-0.264,192.0,0.0,0.0,0.0,0.0,0.0,0.0,0.0,0.0,0.0,1695758136.02398,0.0,2023-09-26 14:55:36.023
156.0,-187500.02235174447,-141644.56923539273,-26488.784133050936,-27958.52308970965,-24750.019580128144,-19436.495832979184,-187500.02235174447,-31117.31631962256,-13630.585507224265,-14810.55644876438,-2075.0465482528866,-40767.63728471247,-31159.24819222071,-33832.49447733098,1816.7721410718132,10863.90893029081,0.058,0.972,-0.264,192.0,0.0,0.0,0.0,0.0,0.0,0.0,0.0,0.0,0.0,1695758136.023989,0.0,2023-09-26 14:55:36.023
158.0,-187500.02235174447,-141599.73163601538,-26512.834610084847,-27983.86996792197,-24777.936908952823,-19449.012809874155,-187500.02235174447,-31141.59031410102,-13643.035428885869,-14800.140535848206,-1972.3626342252055,-40648.72600421024,-31199.280166540168,-33881.26598373246,1896.8360897107232,10908.277143034597,0.058,0.972,-0.264,192.0,0.0,0.0,0.0,0.0,0.0,0.0,0.0,0.0,0.0,1695758136.024027,0.0,2023-09-26 14:55:36.024
160.0,-187500.02235174447,-141641.59645338016,-26509.01246178299,-27972.35881952749,-24767.90097569239,-19448.051684862578,-187500.02235174447,-31129.87800000644,-13623.07532108728,-14856.981021998052,-2044.9163967271325,-40731.13688601695,-31180.63881166444,-33841.88221000221,1849.293929254285,10870.927378049775,0.058,0.972,-0.264,192.0,0.0,0.0,0.0,0.0,0.0,0.0,0.0,0.0,0.0,1695758136.024036,0.0,2023-09-26 14:55:36.024
162.0,-187500.02235174447,-141610.46047335392,-26503.29041520243,-27973.811682917083,-24759.831995944023,-19445.682399950318,-187500.02235174447,-31125.944092982307,-13664.56015879633,-14843.301754391405,-1989.327608266784,-40657.62199850345,-31136.49411636521,-33863.965733524055,1887.1577843615755,10887.601779413437,0.06,0.98,-0.264,192.0,0.5,112.0,15.0,80.0,123.5,96.0,0.0,0.0,0.0,1695758136.024045,0.0,2023-09-26 14:55:36.024
164.0,-187500.02235174447,-141659.72371813343,-26511.582912395348,-27977.29855505211,-24782.027278188143,-19444.7883301721,-187500.02235174447,-31133.811907030573,-13609.753681391918,-14880.204484487116,-2048.269158395429,-40727.98529004875,-31218.65912898292,-33841.99396872449,1848.55632168726,10860.846741300433,0.06,0.98,-0.264,192.0,0.0,0.0,0.0,0.0,0.0,0.0,0.0,0.0,0.0,1695758136.024055,0.0,2023-09-26 14:55:36.024
166.0,-187500.02235174447,-141599.4634150819,-26512.029947284456,-27967.17321481385,-24770.605536771483,-19436.965219612743,-187500.02235174447,-31128.536895339123,-13683.89441775017,-14858.053905731906,-1981.973884340988,-40643.04866111859,-31179.76709363069,-33869.33015219333,1893.6397902536144,10884.87486658989,0.06,0.98,-0.264,192.0,0.0,0.0,0.0,0.0,0.0,0.0,0.0,0.0,0.0,1695758136.084271,0.0,2023-09-26 14:55:36.084
168.0,-187500.02235174447,-141682.12016607766,-26504.60916812529,-27960.1994705438,-24767.766865225654,-19440.183870814308,-187500.02235174447,-31126.480534849237,-13622.293010031344,-14901.706862653122,-2041.2283588920068,-40719.17870273336,-31188.238404779248,-33843.80446002537,1852.2220077779305,10856.018764498089,0.06,0.98,-0.264,192.0,0.0,0.0,0.0,0.0,0.0,0.0,0.0,0.0,0.0,1695758136.0843,0.0,2023-09-26 14:55:36.084
170.0,-187500.02235174447,-141635.7402963329,-26476.267156155965,-27941.33459822352,-24735.200373554275,-19413.250018745664,-187500.02235174447,-31102.810037471063,-13672.092696677768,-14872.381373927758,-1994.066178091309,-40654.35864381297,-31183.11985529898,-33860.21064045556,1887.2471913393963,10887.087689290964,0.06,0.98,-0.264,192.0,0.0,0.0,0.0,0.0,0.0,0.0,0.0,0.0,0.0,1695758136.084309,0.0,2023-09-26 14:55:36.084
172.0,-187500.02235174447,-141728.63414628914,-26499.825894811856,-27963.731046167737,-24767.9456791813,-19440.42974000332,-187500.02235174447,-31122.367813869456,-13611.675931415071,-14919.677665195188,-2068.139859216197,-40744.078546056575,-31150.77688107215,-33834.48378258751,1826.8974813100676,10855.05763948651,0.054,0.976,-0.268,192.0,0.5,88.0,15.0,64.0,123.5,80.0,0.0,0.0,0.0,1695758136.084318,0.0,2023-09-26 14:55:36.084
174.0,-187500.02235174447,-141641.685860358,-26491.44399064112,-27970.36951427097,-24749.796062683592,-19445.61534471695,-187500.02235174447,-31131.084994207027,-13681.256911904446,-14908.725310412088,-2027.482036051993,-40684.55585057209,-31190.786503647152,-33867.20673647007,1862.973196860933,10883.757279367122,0.054,0.976,-0.268,192.0,0.0,0.0,0.0,0.0,0.0,0.0,0.0,0.0,0.0,1695758136.084328,0.0,2023-09-26 14:55:36.084
176.0,-187500.02235174447,-141717.57003278375,-26510.24180772803,-27978.706714952797,-24771.745475738702,-19450.465673263752,-187500.02235174447,-31137.7011105658,-13689.75057479746,-14960.782523248496,-2043.64234729318,-40711.5120543852,-31217.27332082669,-33869.30780044887,1854.7701066458355,10856.734020320657,0.054,0.976,-0.268,192.0,0.0,0.0,0.0,0.0,0.0,0.0,0.0,0.0,0.0,1695758136.084337,0.0,2023-09-26 14:55:36.084
178.0,-187500.02235174447,-141636.65671785554,-26519.227208999066,-27985.2557760782,-24772.52778679464,-19462.312097825063,-187500.02235174447,-31146.619456603465,-13652.043181901356,-14932.351104301348,-2020.7988644598563,-40674.58697254503,-31178.202471518813,-33874.00166678449,1871.399804520584,10883.310244478018,0.054,0.976,-0.268,192.0,0.0,0.0,0.0,0.0,0.0,0.0,0.0,0.0,0.0,1695758136.084376,0.0,2023-09-26 14:55:36.084
180.0,-187500.02235174447,-141720.34164909623,-26518.377842709764,-27986.976860401257,-24785.737667767724,-19460.143978612898,-187500.02235174447,-31145.21129670278,-13712.348188441776,-14992.074965485928,-2024.1069226392417,-40684.801719761104,-31213.831152180574,-33879.679009876134,1863.46493523895,10850.363773150895,0.054,0.976,-0.268,192.0,0.0,0.0,0.0,0.0,0.0,0.0,0.0,0.0,0.0,1695758136.084385,0.0,2023-09-26 14:55:36.084
182.0,-187500.02235174447,-141634.7344678324,-26465.76183626197,-27946.96723782626,-24744.163423080856,-19426.99634158568,-187500.02235174447,-31122.613683058466,-13654.166597624611,-14925.891450153764,-2011.6346492331804,-40659.16426887087,-31208.17616083338,-33873.48757666202,1877.300665056785,10881.857381088425,0.056,0.974,-0.27,192.0,0.5,96.0,15.0,56.0,123.5,72.0,0.0,0.0,0.0,1695758136.143178,0.0,2023-09-26 14:55:36.143
184.0,-187500.02235174447,-141739.13946618314,-26493.45564764209,-27961.07118857756,-24760.211975599763,-19436.451129490277,-187500.02235174447,-31127.419308116358,-13686.822496273817,-14937.514357270522,-2018.1390068696744,-40674.11758591147,-31179.565927930587,-33855.18149795312,1867.152973074076,10867.10522974792,0.056,0.974,-0.27,192.0,0.0,0.0,0.0,0.0,0.0,0.0,0.0,0.0,0.0,1695758136.1432,0.0,2023-09-26 14:55:36.143
186.0,-187500.02235174447,-141660.12604953363,-26485.61018533828,-27957.696075164808,-24763.2965163346,-19436.115853323445,-187500.02235174447,-31127.955749983284,-13642.588393996764,-14910.71461566861,-2031.7288674985011,-40684.24292614972,-31177.107236040505,-33850.73350080651,1855.328900257218,10876.492962419148,0.056,0.974,-0.27,192.0,0.0,0.0,0.0,0.0,0.0,0.0,0.0,0.0,0.0,1695758136.14321,0.0,2023-09-26 14:55:36.143
188.0,-187500.02235174447,-141714.0608089043,-26482.14566494771,-27940.552287167586,-24749.68430396132,-19421.073129305023,-187500.02235174447,-31120.423212101843,-13697.2831126789,-14926.00320887604,-2003.610372973725,-40658.918399681854,-31194.139265315447,-33868.167861481656,1872.718557443447,10875.420078685294,0.056,0.974,-0.27,192.0,0.0,0.0,0.0,0.0,0.0,0.0,0.0,0.0,0.0,1695758136.143219,0.0,2023-09-26 14:55:36.143
190.0,-187500.02235174447,-141641.0376597688,-26497.389554666228,-27960.601801943994,-24757.1944900983,-19432.45016723277,-187500.02235174447,-31124.49122959271,-13642.45428353003,-14885.971234556584,-2011.098207366253,-40662.360568327975,-31201.694154941342,-33858.80248055488,1876.384243534117,10891.803907371032,0.056,0.974,-0.27,192.0,0.0,0.0,0.0,0.0,0.0,0.0,0.0,0.0,0.0,1695758136.143228,0.0,2023-09-26 14:55:36.143
192.0,-187500.02235174447,-141718.53115779534,-26485.923109760657,-27940.01584530066,-24756.412179042363,-19403.616416885427,-187500.02235174447,-31106.542778795098,-13664.023716929403,-14876.203522229616,-1980.386910484661,-40631.80573365757,-31169.59704990352,-33871.58767838332,1888.588296006715,10882.125602021886,0.054,0.98,-0.272,192.0,0.5,88.0,15.0,80.0,123.5,64.0,0.0,0.0,0.0,1695758136.143237,0.0,2023-09-26 14:55:36.143
194.0,-187500.02235174447,-141662.1377065346,-26495.400249409708,-27951.77286288415,-24760.16727211085,-19414.05468154605,-187500.02235174447,-31114.81292424356,-13640.017943384402,-14828.281382117437,-2040.1778269026076,-40687.99801921821,-31207.304442799625,-33846.37491063773,1847.818714120235,10884.472535189692,0.054,0.98,-0.272,192.0,0.0,0.0,0.0,0.0,0.0,0.0,0.0,0.0,0.0,1695758136.143248,0.0,2023-09-26 14:55:36.143
196.0,-187500.02235174447,-141707.51174777886,-26525.55275267992,-27965.27331653516,-24787.21288290177,-19419.486155448696,-187500.02235174447,-31123.73127028123,-13681.815705515828,-14804.40971903917,-1974.8660296042003,-40612.40441947036,-31206.678593954875,-33870.403035927186,1895.2491158543965,10885.500715434637,0.054,0.98,-0.272,192.0,0.0,0.0,0.0,0.0,0.0,0.0,0.0,0.0,0.0,1695758136.203436,0.0,2023-09-26 14:55:36.203
198.0,-187500.02235174447,-141642.40111618055,-26481.922147503155,-27939.09942377799,-24752.90295516288,-19413.250018745664,-187500.02235174447,-31112.510694564666,-13642.3201730633,-14767.506988943458,-2032.7123442545349,-40670.27308586516,-31196.75441941672,-33875.342771451804,1858.4357927365056,10870.413287927306,0.054,0.98,-0.272,192.0,0.0,0.0,0.0,0.0,0.0,0.0,0.0,0.0,0.0,1695758136.203456,0.0,2023-09-26 14:55:36.203
200.0,-187500.02235174447,-141697.63227672962,-26501.36816517928,-27945.983761070223,-24763.90001343489,-19403.45995467424,-187500.02235174447,-31108.621491029444,-13628.931478134573,-14668.086429606252,-1946.5687211237812,-40575.50168937465,-31203.571701475583,-33863.49634689049,1922.317078389773,10898.77765164109,0.054,0.98,-0.272,192.0,0.0,0.0,0.0,0.0,0.0,0.0,0.0,0.0,0.0,1695758136.203495,0.0,2023-09-26 14:55:36.203
202.0,-187500.02235174447,-141674.185296796,-26487.755952805997,-27944.173269769344,-24761.642487244902,-19416.40161471386,-187500.02235174447,-31116.35519461098,-13641.694324218552,-14651.61319394269,-2052.6501003086687,-40687.305115140094,-31165.01494229018,-33855.0920909753,1838.229815748908,10854.655308086314,0.06,0.988,-0.272,192.0,0.5,112.0,15.0,112.0,123.5,64.0,0.0,0.0,0.0,1695758136.203504,0.0,2023-09-26 14:55:36.203
204.0,-187500.02235174447,-141680.62259919915,-26492.2039499526,-27946.63196165943,-24763.810606457067,-19408.39969019886,-187500.02235174447,-31110.52138930814,-13665.18600764108,-14595.152687448584,-1944.9593955229996,-40565.48810785868,-31214.74757370324,-33893.112408293775,1923.5464243348151,10897.458898718229,0.06,0.988,-0.272,192.0,0.0,0.0,0.0,0.0,0.0,0.0,0.0,0.0,0.0,1695758136.203513,0.0,2023-09-26 14:55:36.203
206.0,-187500.02235174447,-141684.86943064566,-26463.213737394064,-27927.163592238856,-24750.399559783884,-19409.047890788068,-187500.02235174447,-31102.92179619334,-13608.189059280046,-14576.64544303959,-2042.7259257705125,-40676.1515946569,-31189.110122813003,-33841.524582090926,1845.8070571192573,10857.695145332234,0.06,0.988,-0.272,192.0,0.0,0.0,0.0,0.0,0.0,0.0,0.0,0.0,0.0,1695758136.203522,0.0,2023-09-26 14:55:36.203
208.0,-187500.02235174447,-141686.92579113552,-26500.67526110116,-27943.43566220232,-24780.730877009737,-19408.93613206579,-187500.02235174447,-31113.4941713207,-13660.358030838732,-14511.15483178554,-1951.7990293263235,-40571.52307886161,-31210.165466089904,-33875.298067962896,1913.0411044408208,10892.139183537864,0.06,0.988,-0.272,192.0,0.0,0.0,0.0,0.0,0.0,0.0,0.0,0.0,0.0,1695758136.203531,0.0,2023-09-26 14:55:36.203
210.0,-187500.02235174447,-141708.0481896458,-26487.107752216787,-27931.343368452,-24747.0915016045,-19413.56294316804,-187500.02235174447,-31108.01799392915,-13657.765228481918,-14535.294715797272,-2053.1418386866853,-40683.14769067141,-31201.515340985698,-33860.63532360021,1833.491245924383,10847.256880671606,0.06,0.988,-0.272,192.0,0.0,0.0,0.0,0.0,0.0,0.0,0.0,0.0,0.0,1695758136.20354,0.0,2023-09-26 14:55:36.203
212.0,-187500.02235174447,-141665.95985483646,-26512.231112984555,-27957.584316442528,-24770.8961094494,-19430.438510231797,-187500.02235174447,-31126.30172089359,-13668.762286753928,-14473.603901100623,-1957.7892968403453,-40572.819480040016,-31218.03328013817,-33872.86172781727,1908.4142933385724,10897.794174885055,0.06,0.98,-0.27,192.0,0.5,112.0,15.0,80.0,123.5,72.0,0.0,0.0,0.0,1695758136.263749,0.0,2023-09-26 14:55:36.263
214.0,-187500.02235174447,-141727.53891081084,-26518.06491828739,-27956.98081934224,-24779.03214443113,-19430.527917209616,-187500.02235174447,-31120.19969465729,-13694.399737644166,-14528.030398849298,-2032.153550643152,-40656.7949839586,-31213.674689969383,-33883.881137833734,1847.4163827200396,10849.022668483576,0.06,0.98,-0.27,192.0,0.0,0.0,0.0,0.0,0.0,0.0,0.0,0.0,0.0,1695758136.263772,0.0,2023-09-26 14:55:36.263
216.0,-187500.02235174447,-141661.35539547866,-26466.588850806816,-27940.17230751185,-24738.106100333465,-19414.859344346445,-187500.02235174447,-31107.570959040044,-13660.581548283286,-14469.044145231745,-1968.1158027786976,-40575.7252068192,-31219.4190882944,-33873.30876270637,1896.7690344773573,10888.227628258184,0.06,0.98,-0.27,192.0,0.0,0.0,0.0,0.0,0.0,0.0,0.0,0.0,0.0,1695758136.263782,0.0,2023-09-26 14:55:36.263
218.0,-187500.02235174447,-141759.47955363747,-26497.791886066425,-27941.2451912457,-24756.456882531274,-19418.614437414937,-187500.02235174447,-31106.98981368421,-13670.103391421246,-14522.01777959082,-2034.6569460221467,-40653.50927752367,-31206.253910810225,-33862.08818698981,1847.014051319844,10847.882729516356,0.06,0.98,-0.27,192.0,0.0,0.0,0.0,0.0,0.0,0.0,0.0,0.0,0.0,1695758136.263791,0.0,2023-09-26 14:55:36.263
220.0,-187500.02235174447,-141676.934561364,-26483.26325217048,-27943.72623488024,-24743.291705047097,-19421.497812449677,-187500.02235174447,-31109.828485230028,-13673.52320832291,-14475.414392401504,-1993.708550180024,-40594.32185820602,-31211.84184692405,-33878.024980786446,1876.808926678768,10882.594988655448,0.06,0.98,-0.27,192.0,0.0,0.0,0.0,0.0,0.0,0.0,0.0,0.0,0.0,1695758136.2638,0.0,2023-09-26 14:55:36.263
222.0,-187500.02235174447,-141740.48057085046,-26498.551845377904,-27960.4006362439,-24766.13518788042,-19439.803891158568,-187500.02235174447,-31118.746831267697,-13680.072269448314,-14516.049863821252,-2019.25659409244,-40631.403402257376,-31240.496783315757,-33883.83643434482,1860.492153226394,10860.019726755589,0.06,0.976,-0.27,192.0,0.5,112.0,15.0,64.0,123.5,72.0,0.0,0.0,0.0,1695758136.263842,0.0,2023-09-26 14:55:36.263
224.0,-187500.02235174447,-141661.04247105628,-26478.703496301598,-27947.906011093382,-24748.209088827265,-19425.23055377371,-187500.02235174447,-31108.219159629247,-13688.476525363509,-14495.128631011086,-1974.9330848375664,-40570.427843383295,-31244.453042084344,-33895.03465831693,1897.5289937888376,10887.601779413437,0.06,0.976,-0.27,192.0,0.0,0.0,0.0,0.0,0.0,0.0,0.0,0.0,0.0,1695758136.263852,0.0,2023-09-26 14:55:36.263
226.0,-187500.02235174447,-141769.94017004254,-26479.686973057625,-27937.981836555224,-24744.23047831422,-19412.91474257884,-187500.02235174447,-31095.09868563398,-13675.84778974626,-14528.946820371964,-2008.997143387454,-40618.46174221776,-31197.492026983746,-33872.146471994696,1866.9294556295224,10859.952671522222,0.06,0.976,-0.27,192.0,0.0,0.0,0.0,0.0,0.0,0.0,0.0,0.0,0.0,1695758136.324037,0.0,2023-09-26 14:55:36.324
228.0,-187500.02235174447,-141658.44966869947,-26476.691839300616,-27946.18492677032,-24759.67553373284,-19437.79223415759,-187500.02235174447,-31117.651595789383,-13667.331775108789,-14479.482409892373,-2002.2469165619516,-40599.2839454751,-31236.048786169147,-33872.45939641707,1873.5455719882927,10887.44531720225,0.06,0.976,-0.27,192.0,0.0,0.0,0.0,0.0,0.0,0.0,0.0,0.0,0.0,1695758136.324061,0.0,2023-09-26 14:55:36.324
230.0,-187500.02235174447,-141771.3259781988,-26455.994123935,-27922.246208458688,-24734.842745642996,-19405.13633550839,-187500.02235174447,-31090.15895010936,-13688.968263741526,-14509.657264907037,-1980.453965718027,-40584.68825634578,-31233.14305938996,-33875.90156506319,1891.4716710414496,10876.314148463503,0.06,0.976,-0.27,192.0,0.0,0.0,0.0,0.0,0.0,0.0,0.0,0.0,0.0,1695758136.324071,0.0,2023-09-26 14:55:36.324
232.0,-187500.02235174447,-141693.0054656274,-26486.23603418303,-27943.010979057668,-24744.61045796996,-19427.398672985877,-187500.02235174447,-31105.11226714996,-13714.985694287505,-14483.684537849967,-2024.9115854396327,-40619.13229455141,-31218.27914932718,-33883.0988267778,1854.74775490138,10876.96234905271,0.062,0.978,-0.262,192.0,0.5,120.0,15.0,72.0,123.5,104.0,0.0,0.0,0.0,1695758136.32408,0.0,2023-09-26 14:55:36.324
234.0,-187500.02235174447,-141773.0694142663,-26459.391589092207,-27923.609664870462,-24742.397635268884,-19412.490059434185,-187500.02235174447,-31092.327069321524,-13669.254025131944,-14496.58149440068,-1994.49086123596,-40594.4336169283,-31234.88649545747,-33861.12706197823,1874.998435377888,10877.208218241718,0.062,0.978,-0.262,192.0,0.0,0.0,0.0,0.0,0.0,0.0,0.0,0.0,0.0,1695758136.324089,0.0,2023-09-26 14:55:36.324
236.0,-187500.02235174447,-141691.10556734868,-26483.66558357067,-27952.085787306525,-24758.98262965472,-19438.17221381333,-187500.02235174447,-31116.28813937761,-13732.28594449591,-14486.970244284896,-2019.122483625708,-40603.150797265866,-31251.024454954204,-33888.86557684727,1864.1578393170644,10872.782572839567,0.062,0.978,-0.262,192.0,0.0,0.0,0.0,0.0,0.0,0.0,0.0,0.0,0.0,1695758136.324098,0.0,2023-09-26 14:55:36.324
238.0,-187500.02235174447,-141766.25213220742,-26460.173900148144,-27942.98862731321,-24737.592010210992,-19426.973989841223,-187500.02235174447,-31105.38048808342,-13709.218944218032,-14500.82832584719,-1975.871858104689,-40556.79327926556,-31253.79607126666,-33896.44281821761,1893.885659442623,10871.82144782799,0.062,0.978,-0.262,192.0,0.0,0.0,0.0,0.0,0.0,0.0,0.0,0.0,0.0,1695758136.324107,0.0,2023-09-26 14:55:36.324
240.0,-187500.02235174447,-141685.5399829793,-26476.065990455867,-27961.697037422306,-24749.974876639237,-19452.343219798,-187500.02235174447,-31122.43486910282,-13753.743619173005,-14496.022700789295,-2019.033076647887,-40595.43944542878,-31263.67554231591,-33890.586661170324,1867.197676562986,10866.635843114358,0.062,0.978,-0.262,192.0,0.0,0.0,0.0,0.0,0.0,0.0,0.0,0.0,0.0,1695758136.324116,0.0,2023-09-26 14:55:36.324
242.0,-187500.02235174447,-141757.49024838093,-26484.29143241542,-27964.28983977912,-24745.437472514808,-19442.016713859644,-187500.02235174447,-31119.88677023492,-13761.432619265632,-14517.30156151075,-1959.353918952217,-40531.02171790859,-31245.928257218395,-33912.960757370085,1910.850633484201,10868.759258837612,0.06,0.978,-0.26,192.0,0.5,112.0,15.0,72.0,123.5,112.0,0.0,0.0,0.0,1695758136.384271,0.0,2023-09-26 14:55:36.384
244.0,-187500.02235174447,-141720.31929735176,-26430.13315560021,-27932.88563881941,-24716.26844600063,-19428.628018930915,-187500.02235174447,-31099.30081359158,-13746.747523158494,-14497.96730255691,-2035.9533472005544,-40610.19159676929,-31263.787301038185,-33872.57115513935,1853.65251942307,10850.676697573268,0.06,0.978,-0.26,192.0,0.0,0.0,0.0,0.0,0.0,0.0,0.0,0.0,0.0,1695758136.384336,0.0,2023-09-26 14:55:36.384
246.0,-187500.02235174447,-141751.87996052267,-26456.61997277975,-27957.807833887084,-24750.80189118408,-19443.24605980469,-187500.02235174447,-31116.69047077781,-13784.030232909949,-14463.947947495932,-1955.5764741392704,-40526.88664518436,-31264.61431558303,-33905.361164255286,1911.5882410512256,10877.029404286077,0.06,0.978,-0.26,192.0,0.0,0.0,0.0,0.0,0.0,0.0,0.0,0.0,0.0,1695758136.384347,0.0,2023-09-26 14:55:36.384
248.0,-187500.02235174447,-141730.51169282338,-26438.13508011521,-27944.799118614093,-24733.88162063141,-19446.37530402843,-187500.02235174447,-31113.2930056206,-13763.95836638908,-14455.633098558556,-2027.906719196644,-40605.520082178125,-31273.264440687235,-33889.8490536033,1860.425097993028,10851.704877818212,0.06,0.978,-0.26,192.0,0.0,0.0,0.0,0.0,0.0,0.0,0.0,0.0,0.0,1695758136.384357,0.0,2023-09-26 14:55:36.384
250.0,-187500.02235174447,-141749.82360003277,-26459.369237347757,-27954.11979605196,-24743.89520214739,-19450.44332151929,-187500.02235174447,-31120.467915590754,-13792.479192314053,-14417.791595195724,-1943.2159594554853,-40513.87792991137,-31260.099263203057,-33911.44083874713,1917.6902672875249,10879.376337453885,0.06,0.978,-0.26,192.0,0.0,0.0,0.0,0.0,0.0,0.0,0.0,0.0,0.0,1695758136.384366,0.0,2023-09-26 14:55:36.384
252.0,-187500.02235174447,-141748.9965854879,-26431.1389841007,-27934.360853953465,-24731.64644618588,-19443.51428073815,-187500.02235174447,-31108.219159629247,-13793.194448136624,-14417.210449839886,-2033.4052483326493,-40611.46564620324,-31275.36550466603,-33888.016210557966,1850.165647288042,10847.614508582892,0.058,0.978,-0.264,192.0,0.5,104.0,15.0,72.0,123.5,96.0,0.0,0.0,0.0,1695758136.384376,0.0,2023-09-26 14:55:36.384
254.0,-187500.02235174447,-141745.1967889305,-26435.251705080474,-27937.66891213285,-24733.166364808843,-19434.12654806692,-187500.02235174447,-31108.643842773898,-13823.324599662375,-14374.719783630346,-1943.260662944396,-40507.68649669725,-31279.388818667987,-33904.37768749925,1918.1373021766308,10886.05950904602,0.058,0.978,-0.264,192.0,0.0,0.0,0.0,0.0,0.0,0.0,0.0,0.0,0.0,1695758136.384386,0.0,2023-09-26 14:55:36.384
0.0,-187500.02235174447,-141796.76226338893,-26409.726012912517,-27913.193751954288,-24710.79226860908,-19422.861268861445,-187500.02235174447,-31091.05301988757,-13809.287704144444,-14399.686682186924,-2050.21376016304,-40624.65317543187,-31221.721317973297,-33871.922954550144,1837.4475046929724,10847.52510160507,0.058,0.978,-0.264,192.0,0.0,0.0,0.0,0.0,0.0,0.0,0.0,0.0,0.0,1695758136.443735,0.0,2023-09-26 14:55:36.443
2.0,-187500.02235174447,-141772.64473112163,-26439.409129549163,-27946.2966854926,-24735.22272529873,-19445.816510417048,-187500.02235174447,-31118.009223700672,-13865.189417027166,-14339.247565179774,-1971.066233046798,-40533.25689235412,-31268.65998132944,-33904.17652179915,1897.8642699556676,10889.05464280303,0.058,0.978,-0.264,192.0,0.0,0.0,0.0,0.0,0.0,0.0,0.0,0.0,0.0,1695758136.443761,0.0,2023-09-26 14:55:36.443
4.0,-187500.02235174447,-141822.7796939349,-26431.87659166773,-27932.349196952488,-24730.975893852225,-19438.28397253561,-187500.02235174447,-31107.63801427341,-13859.847350102347,-14378.18430402092,-2061.724908557524,-40636.365489526455,-31253.885478244483,-33897.96273684058,1829.2891179667852,10837.355057877903,0.058,0.978,-0.264,192.0,0.0,0.0,0.0,0.0,0.0,0.0,0.0,0.0,0.0,1695758136.44377,0.0,2023-09-26 14:55:36.443
6.0,-187500.02235174447,-141752.77403030088,-26438.157431859665,-27946.095519792503,-24736.89910613288,-19446.35295228397,-187500.02235174447,-31117.517485322656,-13867.916329850714,-14321.992018460276,-1975.7153958935016,-40535.15679063282,-31261.61918182602,-33909.96562361308,1900.546479290304,10893.145012038352,0.058,0.976,-0.266,192.0,0.5,104.0,15.0,64.0,123.5,88.0,0.0,0.0,0.0,1695758136.443779,0.0,2023-09-26 14:55:36.443
8.0,-187500.02235174447,-141775.63986487864,-26454.04952216739,-27957.137281553423,-24744.543402736595,-19458.579356501028,-187500.02235174447,-31126.10055519349,-13876.812324143926,-14376.418516208949,-2005.8902509081663,-40575.90402077485,-31258.15466143545,-33926.0588796209,1885.5708105052488,10862.232549456665,0.058,0.976,-0.266,192.0,0.0,0.0,0.0,0.0,0.0,0.0,0.0,0.0,0.0,1695758136.44382,0.0,2023-09-26 14:55:36.443
10.0,-187500.02235174447,-141718.24058511743,-26453.91541170066,-27959.48421472123,-24752.321809807043,-19457.12649311143,-187500.02235174447,-31125.944092982307,-13872.967824097614,-14343.740265815291,-1949.072116502776,-40504.98193561816,-31269.35288540756,-33932.56323725739,1927.8826627591448,10885.791288112556,0.058,0.976,-0.266,192.0,0.0,0.0,0.0,0.0,0.0,0.0,0.0,0.0,0.0,1695758136.443829,0.0,2023-09-26 14:55:36.443
12.0,-187500.02235174447,-141788.38035921816,-26449.020379664944,-27948.12952853793,-24748.745530694192,-19450.13039709692,-187500.02235174447,-31113.091839920504,-13865.100010049346,-14382.073507556142,-1991.6298379456805,-40557.285017643575,-31265.418978383423,-33921.52147549647,1897.6631042555696,10849.559110350505,0.058,0.976,-0.266,192.0,0.0,0.0,0.0,0.0,0.0,0.0,0.0,0.0,0.0,1695758136.443838,0.0,2023-09-26 14:55:36.443
14.0,-187500.02235174447,-141704.6507244886,-26442.068987139344,-27948.084825049023,-24737.41319625535,-19451.51620525315,-187500.02235174447,-31114.097668420996,-13867.826922872891,-14336.654762822958,-1942.6571658441028,-40487.68168540975,-31249.415129353423,-33928.11524011078,1935.1916831960305,10886.752413124135,0.058,0.976,-0.266,192.0,0.0,0.0,0.0,0.0,0.0,0.0,0.0,0.0,0.0,1695758136.443847,0.0,2023-09-26 14:55:36.443
16.0,-187500.02235174447,-141825.0819236138,-26427.026263120923,-27928.79526958409,-24727.84664962848,-19433.724216666727,-187500.02235174447,-31094.226967600225,-13863.758905382028,-14374.116286530054,-1985.9524948540325,-40542.44345932525,-31248.923390975404,-33906.61286194478,1895.584392021226,10850.34142140644,0.058,0.976,-0.264,192.0,0.5,104.0,15.0,64.0,123.5,96.0,0.0,0.0,0.0,1695758136.504017,0.0,2023-09-26 14:55:36.504
18.0,-187500.02235174447,-141756.953806514,-26424.411109019653,-27927.789441083605,-24723.108079803955,-19433.79127190009,-187500.02235174447,-31094.11520887795,-13881.975577113102,-14341.84036753659,-1981.1692215405967,-40526.193741106246,-31249.124556675502,-33916.00059461601,1893.595086764704,10869.519218149091,0.058,0.976,-0.264,192.0,0.0,0.0,0.0,0.0,0.0,0.0,0.0,0.0,0.0,1695758136.50404,0.0,2023-09-26 14:55:36.504
20.0,-187500.02235174447,-141860.33062461982,-26411.93883561359,-27915.875961288926,-24716.64842565637,-19432.85249863297,-187500.02235174447,-31086.67207797433,-13850.325506964387,-14361.018164279243,-2003.1856898290744,-40561.330683389984,-31241.547315305157,-33897.35923974028,1871.6456737095923,10851.906043518313,0.058,0.976,-0.264,192.0,0.0,0.0,0.0,0.0,0.0,0.0,0.0,0.0,0.0,1695758136.504049,0.0,2023-09-26 14:55:36.504
22.0,-187500.02235174447,-141743.38629762965,-26430.200210833576,-27939.591162156008,-24741.99530386869,-19460.970993157745,-187500.02235174447,-31115.48347657722,-13875.2253502876,-14328.07169295212,-1980.6327796736691,-40524.226787594176,-31270.87280403052,-33924.76247844249,1896.2102408659744,10884.830163100978,0.058,0.976,-0.264,192.0,0.0,0.0,0.0,0.0,0.0,0.0,0.0,0.0,0.0,1695758136.504058,0.0,2023-09-26 14:55:36.504
24.0,-187500.02235174447,-141822.04208636787,-26433.217696335043,-27938.473574933243,-24747.76205393816,-19454.109007609964,-187500.02235174447,-31110.499037563688,-13881.50619047954,-14363.052173024676,-1951.396697926128,-40500.33277277146,-31263.742597549277,-33924.27074006447,1916.907956231589,10867.14993323683,0.058,0.976,-0.264,192.0,0.0,0.0,0.0,0.0,0.0,0.0,0.0,0.0,0.0,1695758136.504068,0.0,2023-09-26 14:55:36.504
26.0,-187500.02235174447,-141729.5505678118,-26437.218658592545,-27944.843822103005,-24745.303362048075,-19462.80383620308,-187500.02235174447,-31117.003395200183,-13879.69569917866,-14339.515786113236,-1957.2528549734184,-40498.05289483701,-31258.601696324557,-33929.16577210018,1916.393866109117,10873.654290873324,0.058,0.984,-0.266,192.0,0.5,104.0,15.0,96.0,123.5,88.0,0.0,0.0,0.0,1695758136.504077,0.0,2023-09-26 14:55:36.504
28.0,-187500.02235174447,-141810.73210367348,-26438.47035628204,-27944.597952913995,-24747.65029521588,-19453.90784190987,-187500.02235174447,-31109.940243952307,-13892.570303984918,-14342.712085570349,-1921.0206772113652,-40466.469879921664,-31269.24112668528,-33935.111336125294,1939.0585349867983,10861.740811078644,0.058,0.984,-0.266,192.0,0.0,0.0,0.0,0.0,0.0,0.0,0.0,0.0,0.0,1695758136.504086,0.0,2023-09-26 14:55:36.504
30.0,-187500.02235174447,-141735.54083532584,-26427.965036388046,-27940.842859845503,-24745.728045192725,-19460.211033846263,-187500.02235174447,-31111.326052108536,-13878.22048404461,-14323.847213250068,-1959.420974185583,-40497.807025648006,-31264.39079813848,-33927.89172266623,1915.2539271418964,10858.991546510642,0.058,0.984,-0.266,192.0,0.0,0.0,0.0,0.0,0.0,0.0,0.0,0.0,0.0,1695758136.563432,0.0,2023-09-26 14:55:36.563
32.0,-187500.02235174447,-141816.85648165422,-26430.401376533675,-27933.4444324308,-24738.329617778018,-19448.74458894069,-187500.02235174447,-31102.72063049324,-13880.36625151232,-14316.985227702287,-1911.789406751324,-40457.50683039508,-31255.830080012096,-33924.918940653675,1944.4900088894376,10863.216026212696,0.058,0.984,-0.266,192.0,0.0,0.0,0.0,0.0,0.0,0.0,0.0,0.0,0.0,1695758136.563466,0.0,2023-09-26 14:55:36.563
