Sample Index,EXG Channel 0,EXG Channel 1,EXG Channel 2,EXG Channel 3,EXG Channel 4,EXG Channel 5,EXG Channel 6,EXG Channel 7,EXG Channel 8,EXG Channel 9,EXG Channel 10,EXG Channel 11,EXG Channel 12,EXG Channel 13,EXG Channel 14,EXG Channel 15,Accel Channel 0,Accel Channel 1,Accel Channel 2,Other,Other.1,Other.2,Other.3,Other.4,Other.5,Other.6,Analog Channel 0,Analog Channel 1,Analog Channel 2,Timestamp,Other.7,Timestamp (Formatted)
0.0,-42871.47287982379,21405.14807762481,-41450.21485688864,-25271.642240481644,-11242.815702297175,-13953.255290181076,-187500.02235174447,-4771.382185385488,0.0,0.0,0.0,0.0,0.0,0.0,0.0,0.0,0.0,0.0,0.0,192.0,0.0,0.0,0.0,0.0,0.0,0.0,0.0,0.0,0.0,1696033277.988103,0.0,2023-09-29 19:21:17.988
210.0,-42850.41753654689,21156.350810092787,-41408.05946684593,-25239.791004632832,-11196.21231510786,-13918.811251975449,-187500.02235174447,-4720.55431849412,-8448.691183172607,25911.70679470382,-26218.842115264197,-21576.429495385823,74.18543984716415,-5979.672787150477,-21765.189977310896,-37687.790416215714,0.0,0.0,0.0,192.0,0.0,0.0,0.0,0.0,0.0,0.0,0.0,0.0,0.0,1696033277.98811,0.0,2023-09-29 19:21:17.988
212.0,-42865.974350687786,21433.691255294238,-41447.1303161538,-25249.134033815157,-11229.583469579637,-13945.678048810729,-187500.02235174447,-4743.88953970546,-8365.073307165303,26075.947412961414,-25986.51808339573,-21579.93871926531,99.39820759275052,-5914.137472407517,-21753.790587638687,-37623.35033695106,0.0,0.0,0.0,192.0,0.0,0.0,0.0,0.0,0.0,0.0,0.0,0.0,0.0,1696033277.988114,0.0,2023-09-29 19:21:17.988
214.0,-42859.02295816219,21133.306161559365,-41431.55115026845,-25267.73068520197,-11210.383321092526,-13928.869536980335,-187500.02235174447,-4721.046056872136,-8444.310241259365,25924.71550997681,-26209.163809915044,-21591.74044033771,95.39724533525056,-5971.715566124388,-21779.9421286514,-37701.02264893325,0.15,1.002,0.216,192.0,2.0,88.0,15.5,40.0,3.0,96.0,0.0,0.0,0.0,1696033277.988118,0.0,2023-09-29 19:21:17.988
216.0,-42877.59725780455,21484.87675009689,-41458.417947103735,-25237.309960998293,-11227.50475734529,-13931.99878120408,-187500.02235174447,-4719.816710927094,-8377.120897426712,26064.503319800297,-25988.30622295216,-21583.157370466877,121.8617107703341,-5872.1832480649055,-21768.185111067905,-37630.6817091324,0.15,1.002,0.216,192.0,0.0,0.0,0.0,0.0,0.0,0.0,0.0,0.0,0.0,1696033277.988121,0.0,2023-09-29 19:21:17.988
218.0,-42873.86451648051,21107.333434502296,-41453.455859834656,-25292.27290061389,-11219.07814968564,-13921.247592121075,-187500.02235174447,-4709.847832900028,-8463.264520557466,25907.906998146416,-26210.14728667108,-21600.7481933532,113.59156532187048,-5934.119931950561,-21791.05094564569,-37706.677640280446,0.15,1.002,0.216,192.0,0.0,0.0,0.0,0.0,0.0,0.0,0.0,0.0,0.0,1696033277.988124,0.0,2023-09-29 19:21:17.988
220.0,-42867.89660071094,21497.68429966978,-41467.69392105269,-25239.14280404363,-11214.496042072302,-13914.251496106566,-187500.02235174447,-4703.768158408184,-8371.220036890512,26056.90372668549,-26020.179810545425,-21594.780277583635,138.51376038953788,-5861.365003748537,-21771.336707036106,-37639.64475865898,0.15,1.002,0.216,192.0,0.0,0.0,0.0,0.0,0.0,0.0,0.0,0.0,0.0,1696033277.988127,0.0,2023-09-29 19:21:17.988
222.0,-42873.75275775824,21079.639623122173,-41467.42570011922,-25320.70431956105,-11209.422196080946,-13914.47501355112,-187500.02235174447,-4706.875050887472,-8451.283985529422,25949.88357423348,-26210.303748882267,-21605.55381841109,132.21056845314126,-5924.799254512698,-21788.346384566597,-37708.24226239232,0.15,1.002,0.216,192.0,0.0,0.0,0.0,0.0,0.0,0.0,0.0,0.0,0.0,1696033277.988131,0.0,2023-09-29 19:21:17.988
224.0,-42897.06562722512,21507.42966025229,-41471.47136586563,-25237.488774953938,-11204.750681489788,-13903.075623878913,-187500.02235174447,-4695.363902492989,-8384.005234718947,26053.03687489473,-26033.09911884059,-21582.8444460445,145.9121878042445,-5843.170683761917,-21768.07335234563,-37641.00821507075,0.156,1.0,0.216,192.0,2.0,112.0,15.5,32.0,3.0,96.0,0.0,0.0,0.0,1696033277.988134,0.0,2023-09-29 19:21:17.988
0.0,-21400.99065315612,10748.931556812711,-20714.85915361156,-12628.422692826116,-5633.108989370941,-6997.280656967242,-93750.01117587223,-2299.1898416507056,-4234.605042291289,12942.554109401002,-13133.527414027143,-10794.640874223816,67.68108221066979,-2958.119268193158,-10893.72615739419,-18863.151235956106,0.152,0.996,0.218,192.0,2.0,96.0,15.5,16.0,3.0,104.0,0.0,0.0,0.0,1696033278.137169,0.0,2023-09-29 19:21:18.137
2.0,-42821.53908271064,21970.98248851091,-41410.98754536957,-25117.705776417944,-11242.5027778748,-13971.069630511956,-187500.02235174447,-4562.147505539359,-8157.939691297972,26309.25492158591,-26114.325358191178,-21551.104968917964,149.3543564503618,-5833.91706155742,-21815.16847791296,-37711.08093393814,0.152,0.996,0.218,192.0,0.0,0.0,0.0,0.0,0.0,0.0,0.0,0.0,0.0,1696033278.137184,0.0,2023-09-29 19:21:18.137
4.0,-42803.43416970184,21658.415694047893,-41427.796057199965,-25247.547059958823,-11280.880723104565,-14006.564200706984,-187500.02235174447,-4611.611916018953,-8181.252560764857,26276.17433979205,-26106.92693077647,-21549.07096017253,136.32328943291776,-5858.392221735981,-21825.27146640676,-37735.44433539442,0.152,0.996,0.218,192.0,0.0,0.0,0.0,0.0,0.0,0.0,0.0,0.0,0.0,1696033278.137188,0.0,2023-09-29 19:21:18.137
6.0,-42822.81313214459,21959.940726749985,-41381.10326303283,-25101.27724424329,-11234.769074293265,-13968.968566533158,-187500.02235174447,-4561.946339839261,-8153.648156362553,26288.780723664848,-26135.2689427458,-21543.61713452544,157.75861236555724,-5843.170683761917,-21800.773954483742,-37710.790361260224,0.152,0.996,0.218,192.0,0.0,0.0,0.0,0.0,0.0,0.0,0.0,0.0,0.0,1696033278.137191,0.0,2023-09-29 19:21:18.137
8.0,-42798.94146906632,21763.446541243386,-41415.770818683006,-25228.83864984973,-11281.32775799367,-14008.1064710744,-187500.02235174447,-4619.703247511774,-8170.836647848684,26284.73505791844,-26059.563584275675,-21554.68124803081,138.11142898934233,-5865.142448561483,-21816.107251180085,-37718.56876833067,0.146,1.0,0.214,192.0,2.0,72.0,15.5,32.0,3.0,88.0,0.0,0.0,0.0,1696033278.137195,0.0,2023-09-29 19:21:18.137
10.0,-42808.32920173755,21931.621066525116,-41378.152832764725,-25095.219921495907,-11233.092693459115,-13956.317479171454,-187500.02235174447,-4562.99687182866,-8161.895950066561,26261.37748496264,-26157.08424533418,-21536.9339629333,146.8062575824568,-5861.901445615465,-21795.722460236844,-37714.23252990634,0.146,1.0,0.214,192.0,0.0,0.0,0.0,0.0,0.0,0.0,0.0,0.0,0.0,1696033278.137198,0.0,2023-09-29 19:21:18.137
12.0,-42794.56052715308,21815.906085479983,-41430.97000491262,-25209.66085310708,-11292.391871499049,-13996.282398257545,-187500.02235174447,-4619.233860878213,-8145.80269405874,26311.3112820758,-26037.43535726492,-21542.387788580392,132.23292019759657,-5861.677928170911,-21812.30745462268,-37700.575614044144,0.146,1.0,0.214,192.0,0.0,0.0,0.0,0.0,0.0,0.0,0.0,0.0,0.0,1696033278.137202,0.0,2023-09-29 19:21:18.137
14.0,-42802.070713290064,21865.638716893045,-41386.35592297983,-25095.577549407197,-11243.776827308757,-13954.216415192655,-187500.02235174447,-4567.646034675364,-8169.920226326017,26261.57865066274,-26186.968527670924,-21526.92038141732,135.63038535480325,-5864.87422762802,-21815.23553314633,-37722.07799221015,0.146,1.0,0.214,192.0,0.0,0.0,0.0,0.0,0.0,0.0,0.0,0.0,0.0,1696033278.137205,0.0,2023-09-29 19:21:18.137
16.0,-42793.979381797246,21875.026449564277,-41418.4306762732,-25183.26344290536,-11293.33064476617,-14000.842154126423,-187500.02235174447,-4622.4301603353215,-8132.481054363377,26332.5677910528,-26012.82608661963,-21522.941770904275,135.65273709925856,-5831.3242592006045,-21823.192754172414,-37689.77972147223,0.146,1.0,0.214,192.0,0.0,0.0,0.0,0.0,0.0,0.0,0.0,0.0,0.0,1696033278.197619,0.0,2023-09-29 19:21:18.197
18.0,-42798.47208243276,21815.660216290977,-41377.63874264226,-25113.66011067153,-11253.477484402358,-13972.835418323926,-187500.02235174447,-4580.855915648451,-8178.123316541114,26238.265781195856,-26197.85382722066,-21521.578314492504,138.40200166726137,-5872.384413765003,-21830.16649844247,-37733.25386443781,0.148,1.002,0.21,192.0,2.0,80.0,15.5,40.0,3.0,72.0,0.0,0.0,0.0,1696033278.197627,0.0,2023-09-29 19:21:18.197
20.0,-42773.52753562064,21904.19547607845,-41418.855359417845,-25182.279966149326,-11294.76115641131,-14010.542811220028,-187500.02235174447,-4621.267869623646,-8125.820234515695,26349.89039300566,-26001.024365547222,-21524.64050348288,136.63621385529208,-5840.242605238272,-21825.69614955141,-37695.88174770853,0.148,1.002,0.21,192.0,0.0,0.0,0.0,0.0,0.0,0.0,0.0,0.0,0.0,1696033278.19763,0.0,2023-09-29 19:21:18.197
22.0,-42800.08140803354,21759.91496561944,-41395.47543471759,-25141.80095694077,-11256.874949559564,-13987.162886519776,-187500.02235174447,-4586.913238395839,-8176.446935706966,26222.932484499517,-26212.80714426126,-21531.815413453038,142.1570947357529,-5892.322169819137,-21825.8526117626,-37750.084728012655,0.148,1.002,0.21,192.0,0.0,0.0,0.0,0.0,0.0,0.0,0.0,0.0,0.0,1696033278.197634,0.0,2023-09-29 19:21:18.197
24.0,-42812.12899829495,21963.472302373924,-41442.39174632928,-25183.129332438628,-11293.643569188544,-14015.281381044551,-187500.02235174447,-4614.539994542599,-8124.367371126101,26342.55902082432,-25999.99618530228,-21548.10983516095,124.20864393814136,-5853.385430977993,-21827.08195770764,-37704.37541060155,0.148,1.002,0.21,192.0,0.0,0.0,0.0,0.0,0.0,0.0,0.0,0.0,0.0,1696033278.197637,0.0,2023-09-29 19:21:18.197
26.0,-42816.93462335284,21700.951063746343,-41421.64932747476,-25179.32953588123,-11267.313214220192,-13998.405813980797,-187500.02235174447,-4590.891848908884,-8200.564467974242,26188.84607420517,-26233.95189451598,-21551.350838106973,128.03079223999885,-5904.682684502922,-21838.391940402027,-37768.77078637729,0.148,1.002,0.21,192.0,0.0,0.0,0.0,0.0,0.0,0.0,0.0,0.0,0.0,1696033278.19764,0.0,2023-09-29 19:21:18.197
28.0,-42806.675172647854,21993.222474243936,-41442.123525395815,-25182.771704527346,-11287.630949930066,-14020.355227035909,-187500.02235174447,-4620.709076012263,-8115.270211132791,26347.185831926567,-26008.512199939752,-21555.93294572031,138.82668481191217,-5859.39805023647,-21830.725292053856,-37710.96917521586,0.15,1.0,0.214,192.0,2.0,88.0,15.5,32.0,3.0,88.0,0.0,0.0,0.0,1696033278.197643,0.0,2023-09-29 19:21:18.197
30.0,-42804.14942552441,21656.24757483573,-41415.86022566083,-25205.48107689393,-11263.84869382962,-14003.859639627892,-187500.02235174447,-4596.300971067068,-8188.740395157385,26199.2843388658,-26227.313426412755,-21565.298326647084,135.20570221015242,-5907.990742682307,-21840.33654216964,-37781.57833595018,0.15,1.0,0.214,192.0,0.0,0.0,0.0,0.0,0.0,0.0,0.0,0.0,0.0,1696033278.257163,0.0,2023-09-29 19:21:18.257
32.0,-42814.25241401821,22041.479890522944,-41434.61333925883,-25169.49476832089,-11275.829228857663,-14010.945142620223,-187500.02235174447,-4607.834471206006,-8105.703664505919,26346.73879703746,-26006.120563283035,-21564.71718129125,141.95592903565517,-5844.332974473593,-21825.494983851317,-37710.11980892656,0.15,1.0,0.214,192.0,0.0,0.0,0.0,0.0,0.0,0.0,0.0,0.0,0.0,1696033278.257175,0.0,2023-09-29 19:21:18.257
34.0,-42807.099855792505,21641.45072000632,-41421.35875479684,-25231.90083884011,-11271.291824733236,-14010.431052497752,-187500.02235174447,-4612.841261963995,-8208.611095978153,26191.930614940004,-26210.32610062672,-21567.26528015915,128.2319579400966,-5921.424141099947,-21841.6552950925,-37784.23819354036,0.15,1.0,0.214,192.0,0.0,0.0,0.0,0.0,0.0,0.0,0.0,0.0,0.0,1696033278.257178,0.0,2023-09-29 19:21:18.257
36.0,-42815.772332641165,22026.07953859324,-41414.20619657114,-25156.12842513662,-11261.434705428446,-14002.362072749384,-187500.02235174447,-4601.86655543644,-8131.743446796352,26323.895314204136,-26024.40429024748,-21552.26725962964,144.12404824781993,-5845.15998901844,-21816.666044791466,-37715.327765384645,0.15,1.0,0.214,192.0,0.0,0.0,0.0,0.0,0.0,0.0,0.0,0.0,0.0,1696033278.257181,0.0,2023-09-29 19:21:18.257
38.0,-42802.94243132382,21591.27105370415,-41416.68724020568,-25235.72298714197,-11268.922539820976,-14011.570991464972,-187500.02235174447,-4613.891793953395,-8196.854078394661,26200.67014702203,-26193.67405100752,-21545.762901993145,146.8062575824568,-5915.098597419095,-21824.8020797732,-37773.062321312704,0.142,0.994,0.214,192.0,2.0,56.0,15.5,8.0,3.0,88.0,0.0,0.0,0.0,1696033278.257185,0.0,2023-09-29 19:21:18.257
40.0,-42806.87633834795,22033.12033809666,-41413.87092040431,-25135.58717198219,-11264.854522330108,-13997.82466862496,-187500.02235174447,-4601.2407065916905,-8125.37319962659,26344.12364293619,-26033.16617407396,-21545.87466071542,145.97924303761042,-5846.545797174668,-21817.962445969875,-37707.25878563628,0.142,0.994,0.214,192.0,0.0,0.0,0.0,0.0,0.0,0.0,0.0,0.0,0.0,1696033278.257188,0.0,2023-09-29 19:21:18.257
42.0,-42792.68298061883,21601.642263131413,-41421.87284491931,-25241.512088955893,-11280.254874259816,-14011.213363553688,-187500.02235174447,-4620.284392867612,-8194.082462082204,26217.299844896777,-26168.014248372823,-21552.714294518744,135.51862663252672,-5898.893582688997,-21833.69807406641,-37763.004036307815,0.142,0.994,0.214,192.0,0.0,0.0,0.0,0.0,0.0,0.0,0.0,0.0,0.0,1696033278.257191,0.0,2023-09-29 19:21:18.257
44.0,-42810.98905932773,22009.65100641859,-41410.741676180565,-25121.97495960891,-11260.585339139145,-13990.649758654805,-187500.02235174447,-4597.373854800922,-8117.907716978517,26316.183962367057,-26065.26327911178,-21539.12443388992,142.1123912468423,-5850.032669309696,-21819.169440170463,-37710.45508509339,0.142,0.994,0.214,192.0,0.0,0.0,0.0,0.0,0.0,0.0,0.0,0.0,0.0,1696033278.257194,0.0,2023-09-29 19:21:18.257
46.0,-42799.94729756681,21620.32832149605,-41434.81450495893,-25251.682132683058,-11297.041034345752,-14021.606924725404,-187500.02235174447,-4636.936442486816,-8182.750127643362,26237.550525373284,-26137.54882068024,-21548.78038749461,122.44285612617207,-5902.7604344797655,-21844.31515268268,-37763.42871945247,0.142,0.994,0.214,192.0,0.0,0.0,0.0,0.0,0.0,0.0,0.0,0.0,0.0,1696033278.317928,0.0,2023-09-29 19:21:18.317
48.0,-42795.47694867575,21995.97173881194,-41410.92049013621,-25115.671767672517,-11253.499836146812,-13991.856752855392,-187500.02235174447,-4596.613895489442,-8137.197272443447,26300.5600929928,-26085.29044214373,-21530.31784657453,137.15030397776414,-5856.894654857476,-21824.35504488409,-37720.91570149848,0.146,0.996,0.218,192.0,2.0,72.0,15.5,16.0,3.0,104.0,0.0,0.0,0.0,1696033278.317939,0.0,2023-09-29 19:21:18.317
50.0,-42786.60330612699,21634.499327480717,-41436.736754982085,-25249.111682070696,-11286.42395572948,-14019.215288068688,-187500.02235174447,-4635.4612273527655,-8175.731679884396,26269.647630411106,-26117.49930590383,-21541.337256591,125.41563813872791,-5895.943152420897,-21836.13441421204,-37753.50454491432,0.146,0.996,0.218,192.0,0.0,0.0,0.0,0.0,0.0,0.0,0.0,0.0,0.0,1696033278.317943,0.0,2023-09-29 19:21:18.317
52.0,-42801.48956793422,21953.41401736904,-41404.25967028853,-25107.222808268405,-11243.21803369737,-13977.641043381816,-187500.02235174447,-4579.090127836482,-8137.890176521561,26296.64853771312,-26125.143602507545,-21537.157480377853,136.3679929218284,-5869.813963152643,-21815.7496232688,-37720.35690788709,0.146,0.996,0.218,192.0,0.0,0.0,0.0,0.0,0.0,0.0,0.0,0.0,0.0,1696033278.317946,0.0,2023-09-29 19:21:18.317
54.0,-42802.69656213481,21672.609051777014,-41444.00107193006,-25253.157347817105,-11290.536676709256,-14025.563183493994,-187500.02235174447,-4641.093866955504,-8168.869694336617,26280.10824681619,-26089.02318346777,-21547.394579338383,121.34762064786204,-5893.082129130617,-21832.111100210084,-37740.94286453043,0.146,0.996,0.218,192.0,0.0,0.0,0.0,0.0,0.0,0.0,0.0,0.0,0.0,1696033278.31795,0.0,2023-09-29 19:21:18.317
56.0,-42820.80147514361,21889.28686252676,-41403.63382144378,-25120.008006096843,-11246.637850599034,-13980.949101561202,-187500.02235174447,-4579.961845870238,-8158.833761076184,26261.51159542937,-26158.425350001497,-21544.958239192754,126.53322536149328,-5872.719689931833,-21822.969236727866,-37736.18194296145,0.146,0.996,0.218,192.0,0.0,0.0,0.0,0.0,0.0,0.0,0.0,0.0,0.0,1696033278.317957,0.0,2023-09-29 19:21:18.317
58.0,-42801.310753978585,21702.873313769494,-41443.62109227432,-25246.51887971388,-11294.984673855864,-14024.602058482416,-187500.02235174447,-4630.543843572598,-8161.940653555472,26297.25203481341,-26065.106816900592,-21557.184643409808,118.21837642411906,-5887.44948952788,-21834.234515933334,-37738.193599962426,0.15,0.996,0.218,192.0,2.0,88.0,15.5,16.0,3.0,104.0,0.0,0.0,0.0,1696033278.31796,0.0,2023-09-29 19:21:18.317
60.0,-42802.47304469026,21825.763204784776,-41408.90883313523,-25130.87095390212,-11249.163597722483,-13986.894665586313,-187500.02235174447,-4582.509944738144,-8168.690880380975,26224.89943801158,-26191.260062606343,-21556.40233235387,117.25725141254084,-5897.418367554948,-21830.144146698018,-37745.59202737713,0.15,0.996,0.218,192.0,0.0,0.0,0.0,0.0,0.0,0.0,0.0,0.0,0.0,1696033278.378417,0.0,2023-09-29 19:21:18.378
62.0,-42804.52940518015,21753.142387049484,-41448.9855109436,-25235.343007486223,-11299.700891935932,-14026.546660250027,-187500.02235174447,-4635.4612273527655,-8159.5490168987535,26291.44058125503,-26055.29440108471,-21561.051495200576,109.61295480882583,-5881.302759802671,-21835.66502757848,-37722.59208233262,0.15,0.996,0.218,192.0,0.0,0.0,0.0,0.0,0.0,0.0,0.0,0.0,0.0,1696033278.378428,0.0,2023-09-29 19:21:18.378
64.0,-42828.44577174733,21777.148160594483,-41409.73584768008,-25144.371407553128,-11257.769019337777,-13995.634197668338,-187500.02235174447,-4594.557534999554,-8186.751089900862,26220.9878827319,-26211.175466916025,-21564.694829546792,112.0045914655437,-5918.652524787489,-21831.79817578771,-37752.409309436,0.15,0.996,0.218,192.0,0.0,0.0,0.0,0.0,0.0,0.0,0.0,0.0,0.0,1696033278.378432,0.0,2023-09-29 19:21:18.378
66.0,-42818.49924546472,21816.64369304701,-41446.99620568707,-25228.65983589409,-11296.728109923377,-14030.391160296342,-187500.02235174447,-4642.256157667179,-8145.489769636366,26321.4142705696,-26034.596685719094,-21575.51307386316,99.73348375958012,-5905.21912636985,-21832.08874846563,-37721.27332940976,0.15,0.996,0.218,192.0,0.0,0.0,0.0,0.0,0.0,0.0,0.0,0.0,0.0,1696033278.378435,0.0,2023-09-29 19:21:18.378
68.0,-42829.36219327,21733.070520528618,-41410.42875175819,-25161.69400950599,-11255.533844892245,-13997.467040713676,-187500.02235174447,-4597.552668756565,-8200.653874952064,26186.25327184836,-26234.845964294196,-21575.736591307712,108.04833269695436,-5929.895452248508,-21829.49594610881,-37764.23338225286,0.156,0.992,0.222,192.0,2.0,112.0,15.5,0.0,3.0,120.0,0.0,0.0,0.0,1696033278.378439,0.0,2023-09-29 19:21:18.378
70.0,-42796.52748066515,21878.870949610588,-41438.837818960885,-25210.867847307665,-11286.602769685123,-14019.43880551324,-187500.02235174447,-4624.888852225406,-8139.298336422245,26309.567846008285,-26023.644330936,-21568.718143548747,107.2660216410186,-5886.980102894318,-21821.98575997183,-37711.50561708279,0.156,0.992,0.222,192.0,0.0,0.0,0.0,0.0,0.0,0.0,0.0,0.0,0.0,1696033278.378443,0.0,2023-09-29 19:21:18.378
72.0,-42816.66640241938,21668.518682541693,-41412.06042910343,-25182.07880044923,-11259.13247574955,-13998.67403491426,-187500.02235174447,-4591.182421586803,-8195.691787682985,26191.88591145109,-26237.416414906555,-21568.226405170728,101.11929191580916,-5946.323984423159,-21829.048911219703,-37766.69207414294,0.156,0.992,0.222,192.0,0.0,0.0,0.0,0.0,0.0,0.0,0.0,0.0,0.0,1696033278.378446,0.0,2023-09-29 19:21:18.378
74.0,-42805.26701274717,21914.43257503898,-41432.95931016914,-25186.638556318117,-11289.754365653322,-14023.551526493016,-187500.02235174447,-4616.328134099023,-8131.139949696058,26333.372453853182,-26011.708499396864,-21560.537405078103,106.55076581844877,-5883.582637737112,-21817.940094225414,-37701.96142220037,0.156,0.992,0.222,192.0,0.0,0.0,0.0,0.0,0.0,0.0,0.0,0.0,0.0,1696033278.378449,0.0,2023-09-29 19:21:18.378
76.0,-42812.911309350886,21622.339978497028,-41412.19453957016,-25192.785286043323,-11262.239368228838,-14012.82268915447,-187500.02235174447,-4602.738273470196,-8200.206840062958,26193.51758879633,-26229.28037992482,-21564.98540222471,97.94534420315554,-5951.621347859067,-21826.83608851863,-37768.07788229917,0.156,0.992,0.222,192.0,0.0,0.0,0.0,0.0,0.0,0.0,0.0,0.0,0.0,1696033278.438272,0.0,2023-09-29 19:21:18.438
78.0,-42816.57699544156,21954.10692144715,-41432.64638574677,-25166.41022758606,-11282.110069049606,-14031.73226496366,-187500.02235174447,-4627.77222726014,-8123.808577514717,26328.83504972876,-26013.09430755309,-21561.69969578978,100.18051864868626,-5897.150146621483,-21819.46001284838,-37704.710686768376,0.15,0.99,0.222,192.0,2.0,88.0,15.0,120.0,3.0,120.0,0.0,0.0,0.0,1696033278.438283,0.0,2023-09-29 19:21:18.438
80.0,-42800.77431211166,21588.745306580706,-41410.741676180565,-25200.51898962486,-11262.485237417846,-14018.768253179582,-187500.02235174447,-4621.871366723939,-8202.218497063936,26186.45443754845,-26218.75270828637,-21563.957221979766,96.11250115782038,-5961.724336352866,-21830.74764379831,-37772.50352770132,0.15,0.99,0.222,192.0,0.0,0.0,0.0,0.0,0.0,0.0,0.0,0.0,0.0,1696033278.438286,0.0,2023-09-29 19:21:18.438
82.0,-42802.76361736818,21983.34300319469,-41424.085667620384,-25141.465680773937,-11268.117877020584,-14016.376616522864,-187500.02235174447,-4626.051142937082,-8117.214812900403,26338.379244611177,-26013.943673842397,-21548.75803575016,110.21645190911912,-5882.286236558704,-21812.08393717813,-37699.50273031029,0.15,0.99,0.222,192.0,0.0,0.0,0.0,0.0,0.0,0.0,0.0,0.0,0.0,1696033278.438289,0.0,2023-09-29 19:21:18.438
84.0,-42793.264125974674,21571.22153892774,-41413.2227198151,-25210.219646718466,-11267.603786898111,-14011.503936231606,-187500.02235174447,-4625.782922003618,-8196.809374905752,26198.971414443426,-26205.699289524477,-21549.965029950745,93.92203020120029,-5944.491141377824,-21827.03725421873,-37765.663893898,0.15,0.99,0.222,192.0,0.0,0.0,0.0,0.0,0.0,0.0,0.0,0.0,0.0,1696033278.438292,0.0,2023-09-29 19:21:18.438
86.0,-42817.29225126413,22008.55577094028,-41409.199405813146,-25121.617331697624,-11261.36765019508,-13992.19202902222,-187500.02235174447,-4597.843241434484,-8118.466510589899,26322.17422988108,-26026.281836781724,-21547.014599682643,104.29323962846276,-5877.100631845073,-21804.394937085504,-37686.538718526215,0.15,0.99,0.222,192.0,0.0,0.0,0.0,0.0,0.0,0.0,0.0,0.0,0.0,1696033278.438295,0.0,2023-09-29 19:21:18.438
88.0,-42803.43416970184,21564.96305048025,-41407.76889416801,-25226.71523412648,-11270.218940999384,-13999.925732603757,-187500.02235174447,-4605.398131060378,-8207.202936077469,26191.908263195543,-26187.50496953785,-21558.07871318802,93.07266391189862,-5948.670917590966,-21820.51054483778,-37748.27423671177,0.154,0.994,0.22,192.0,2.0,104.0,15.5,8.0,3.0,112.0,0.0,0.0,0.0,1696033278.438299,0.0,2023-09-29 19:21:18.438
90.0,-42804.32823948005,21989.176808497527,-41394.62606842829,-25101.85838959913,-11255.667955358978,-13978.75863060458,-187500.02235174447,-4572.04932833306,-8114.353789610123,26318.665006001596,-26055.741435973818,-21535.950486177266,112.58573682138169,-5879.961655135353,-21792.704974735378,-37674.53583175371,0.154,0.994,0.22,192.0,0.0,0.0,0.0,0.0,0.0,0.0,0.0,0.0,0.0,1696033278.438302,0.0,2023-09-29 19:21:18.438
92.0,-42807.3010214926,21600.05528927509,-41423.30335656445,-25234.292475496823,-11301.33256928117,-14027.306619561508,-187500.02235174447,-4626.900509226383,-8193.367206259634,26226.62052233464,-26155.40786450003,-21556.17881490932,86.45654755312772,-5958.818609573676,-21826.7019780519,-37733.030346993255,0.154,0.994,0.22,192.0,0.0,0.0,0.0,0.0,0.0,0.0,0.0,0.0,0.0,1696033278.498595,0.0,2023-09-29 19:21:18.498
94.0,-42807.54689068162,22006.45470696148,-41419.86118791833,-25121.505572975348,-11289.776717397775,-14020.131709591356,-187500.02235174447,-4620.418503334344,-8142.315821923712,26287.3055085308,-26086.475084599864,-21552.11079741845,86.00951266402157,-5914.785672996721,-21833.60866708859,-37710.298622882205,0.154,0.994,0.22,192.0,0.0,0.0,0.0,0.0,0.0,0.0,0.0,0.0,0.0,1696033278.498605,0.0,2023-09-29 19:21:18.498
96.0,-42810.13969303843,21604.995024799708,-41422.99043214208,-25240.32744649976,-11305.311179794217,-14033.095721375434,-187500.02235174447,-4646.1453612024025,-8199.513935984844,26210.035527948803,-26157.01719010081,-21560.44799810028,82.14266087325346,-5954.79529557172,-21844.73983582733,-37759.38305370606,0.154,0.994,0.22,192.0,0.0,0.0,0.0,0.0,0.0,0.0,0.0,0.0,0.0,1696033278.498609,0.0,2023-09-29 19:21:18.498
98.0,-42827.37288801347,21948.876613244607,-41399.58815569737,-25102.48423844388,-11269.146057265529,-14005.781889651047,-187500.02235174447,-4612.349523585978,-8153.871673807106,26270.988735078423,-26121.433212927965,-21545.718198504237,93.81027147892374,-5907.767225237754,-21820.13056518204,-37715.70774504039,0.146,0.994,0.214,192.0,2.0,72.0,15.5,8.0,3.0,88.0,0.0,0.0,0.0,1696033278.498612,0.0,2023-09-29 19:21:18.498
100.0,-42791.63244862943,21638.61204846049,-41418.8777111623,-25229.218629505474,-11302.696025692943,-14032.87220393088,-187500.02235174447,-4649.766343804163,-8195.870601638628,26247.96643828946,-26111.665500601,-21555.441207342294,80.64509399474788,-5938.41146688598,-21836.045007234217,-37742.97687327586,0.146,0.994,0.214,192.0,0.0,0.0,0.0,0.0,0.0,0.0,0.0,0.0,0.0,1696033278.498616,0.0,2023-09-29 19:21:18.498
102.0,-42798.13680626593,21911.169220348504,-41384.18780376766,-25090.05666852673,-11253.008097768796,-13990.560351676984,-187500.02235174447,-4594.579886744009,-8155.838627319173,26278.230700281943,-26130.37391071009,-21540.37613157941,95.866631968812,-5910.941172950408,-21808.50765806528,-37712.6008525611,0.146,0.994,0.214,192.0,0.0,0.0,0.0,0.0,0.0,0.0,0.0,0.0,0.0,1696033278.49862,0.0,2023-09-29 19:21:18.498
104.0,-42782.15530898039,21661.63434524946,-41410.98754536957,-25220.81437359028,-11298.493897735349,-14022.255125314608,-187500.02235174447,-4634.656564552375,-8168.087383280681,26277.560147948283,-26069.82303498066,-21536.174003621814,92.64798076724776,-5929.180196425938,-21812.88859997852,-37718.59112007512,0.146,0.994,0.214,192.0,0.0,0.0,0.0,0.0,0.0,0.0,0.0,0.0,0.0,1696033278.498623,0.0,2023-09-29 19:21:18.498
106.0,-42796.19220449832,21840.47065263637,-41372.29667571744,-25090.05666852673,-11252.158731479494,-13978.311595715477,-187500.02235174447,-4578.330168525001,-8153.916377296016,26258.62822039464,-26154.871422633103,-21523.12058485992,101.78984424946836,-5927.906146991986,-21794.73898348081,-37708.73400077033,0.146,0.994,0.214,192.0,0.0,0.0,0.0,0.0,0.0,0.0,0.0,0.0,0.0,1696033278.558482,0.0,2023-09-29 19:21:18.558
108.0,-42778.22140195625,21700.68284281288,-41409.422923257705,-25204.43054490454,-11300.036168102764,-14016.555430478506,-187500.02235174447,-4627.660468537863,-8159.481961665388,26292.669927200077,-26039.469366010355,-21527.680340728803,93.18442263417516,-5907.655466515478,-21805.22195163035,-37699.05569542119,0.146,0.99,0.218,192.0,2.0,72.0,15.0,120.0,3.0,104.0,0.0,0.0,0.0,1696033278.558494,0.0,2023-09-29 19:21:18.558
110.0,-42821.67319317737,21792.72732647983,-41375.492975174544,-25101.321947732205,-11265.301557219214,-13987.00642430859,-187500.02235174447,-4589.886020408395,-8175.217589761924,26225.94997000098,-26175.949117654454,-21532.821241953523,86.61300976431487,-5929.716638292866,-21807.01009118677,-37720.46866660937,0.146,0.99,0.218,192.0,0.0,0.0,0.0,0.0,0.0,0.0,0.0,0.0,0.0,1696033278.558498,0.0,2023-09-29 19:21:18.558
112.0,-42790.827785829046,21766.86635814504,-41416.3743157833,-25200.764858813865,-11311.5696682417,-14020.019950869078,-187500.02235174447,-4634.924785485839,-8141.131179467581,26320.274331602377,-26021.00682509027,-21545.718198504237,78.38756780476187,-5916.909088719975,-21820.15291692649,-37697.53577679823,0.146,0.99,0.218,192.0,0.0,0.0,0.0,0.0,0.0,0.0,0.0,0.0,0.0,1696033278.558501,0.0,2023-09-29 19:21:18.558
114.0,-42797.1533295099,21739.12784327601,-41387.83113811388,-25121.371462508618,-11268.408449698503,-13994.918941845768,-187500.02235174447,-4596.345674555979,-8181.923113098516,26205.3863651021,-26203.4864668234,-21545.62879152641,86.27773359748527,-5947.866254790575,-21820.287027393228,-37731.30926267019,0.146,0.99,0.218,192.0,0.0,0.0,0.0,0.0,0.0,0.0,0.0,0.0,0.0,1696033278.558504,0.0,2023-09-29 19:21:18.558
116.0,-42795.23107948674,21806.13837315302,-41420.17411234071,-25192.762934298866,-11305.579400727678,-14030.905250418811,-187500.02235174447,-4645.430105379833,-8126.580193827176,26319.91670369109,-26017.184676788413,-21537.64921875587,88.89288769875618,-5909.331847349626,-21818.588294814625,-37699.815654732665,0.146,0.99,0.218,192.0,0.0,0.0,0.0,0.0,0.0,0.0,0.0,0.0,0.0,1696033278.558507,0.0,2023-09-29 19:21:18.558
118.0,-42801.98130631224,21652.246612578227,-41378.13048102027,-25132.0332446138,-11260.115952505585,-13999.165773292278,-187500.02235174447,-4608.370913072934,-8191.601418447664,26198.65849002105,-26222.06076646576,-21533.335332076,97.1406814027645,-5952.113086237084,-21814.74379476831,-37748.00601577831,0.154,0.992,0.218,192.0,2.0,104.0,15.5,0.0,3.0,104.0,0.0,0.0,0.0,1696033278.558511,0.0,2023-09-29 19:21:18.558
120.0,-42794.47112017526,21866.80100760472,-41412.06042910343,-25167.14783515309,-11298.113918079604,-14037.946049922237,-187500.02235174447,-4654.348451417501,-8126.13315893807,26343.83307025827,-25993.782400343705,-21531.41308205284,93.89967845674497,-5912.371684595548,-21809.669948776955,-37696.17232038645,0.154,0.992,0.218,192.0,0.0,0.0,0.0,0.0,0.0,0.0,0.0,0.0,0.0,1696033278.558514,0.0,2023-09-29 19:21:18.558
122.0,-42792.81709108557,21633.89583038042,-41386.78060612448,-25154.608506513658,-11271.47063868888,-14016.086043844944,-187500.02235174447,-4631.527320328632,-8192.562543459242,26178.25134733336,-26207.4874290809,-21540.912573446345,87.9988179205439,-5970.665034134989,-21821.18109717144,-37763.13814677455,0.154,0.992,0.218,192.0,0.0,0.0,0.0,0.0,0.0,0.0,0.0,0.0,0.0,1696033278.617744,0.0,2023-09-29 19:21:18.617
124.0,-42787.31856194956,21935.174993893503,-41412.48511224808,-25144.684331975503,-11294.00119709983,-14027.574840494972,-187500.02235174447,-4642.971413489749,-8119.360580368112,26334.9147242206,-25989.5355688972,-21530.295494830072,98.4594343256276,-5899.430024555925,-21809.334672610126,-37693.870090707554,0.154,0.992,0.218,192.0,0.0,0.0,0.0,0.0,0.0,0.0,0.0,0.0,0.0,1696033278.617753,0.0,2023-09-29 19:21:18.617
126.0,-42789.598439884,21617.6014086725,-41385.8194811129,-25165.829082230222,-11273.415240456492,-14009.604037952906,-187500.02235174447,-4614.0929596534925,-8200.452709251966,26181.022963645813,-26210.236693648894,-21537.962143178243,94.14554764575335,-5958.460981662391,-21823.84095476162,-37755.38209144856,0.154,0.992,0.218,192.0,0.0,0.0,0.0,0.0,0.0,0.0,0.0,0.0,0.0,1696033278.617756,0.0,2023-09-29 19:21:18.617
128.0,-42796.14750100941,21973.19531121198,-41397.15181555174,-25126.73588117789,-11286.446307473936,-14017.874183401367,-187500.02235174447,-4615.635230020908,-8116.119577422092,26348.325770893785,-26002.34311847009,-21528.46265178474,113.54686183295988,-5870.5962742085785,-21803.25499811828,-37684.75057896979,0.156,1.004,0.222,192.0,2.0,112.0,15.5,48.0,3.0,120.0,0.0,0.0,0.0,1696033278.61776,0.0,2023-09-29 19:21:18.617
130.0,-42784.56929738156,21590.17581822584,-41383.24903050054,-25174.54626256779,-11277.505609691812,-14004.86546812838,-187500.02235174447,-4601.86655543644,-8203.380787775612,26205.699289524477,-26201.20658888896,-21541.493718802183,118.12896944629784,-5935.84101627362,-21818.632998303536,-37754.13039375906,0.156,1.004,0.222,192.0,0.0,0.0,0.0,0.0,0.0,0.0,0.0,0.0,0.0,1696033278.617763,0.0,2023-09-29 19:21:18.617
132.0,-42784.01050377018,21989.199160241984,-41391.40741722673,-25101.612520410126,-11270.75538286631,-13989.95685457669,-187500.02235174447,-4581.302950537557,-8108.922315707483,26353.667837818604,-26000.71144112485,-21521.757128448146,149.57787389491486,-5833.179453990395,-21795.633053259025,-37676.45808177687,0.156,1.004,0.222,192.0,0.0,0.0,0.0,0.0,0.0,0.0,0.0,0.0,0.0,1696033278.617766,0.0,2023-09-29 19:21:18.617
134.0,-42785.5974776265,21550.00973343965,-41403.5220627215,-25194.662832577567,-11274.912807334997,-13997.44468896922,-187500.02235174447,-4586.779127929107,-8203.134918586602,26217.121030941133,-26185.783885214794,-21538.096253644973,145.08517325939815,-5901.575792023635,-21819.5494198262,-37749.59298963464,0.156,1.004,0.222,192.0,0.0,0.0,0.0,0.0,0.0,0.0,0.0,0.0,0.0,1696033278.617769,0.0,2023-09-29 19:21:18.617
136.0,-42803.09889353501,21994.40711670007,-41410.33934478037,-25098.10329653064,-11268.6096153986,-13979.42918293824,-187500.02235174447,-4568.2495317756575,-8129.284754906268,26338.535706822364,-26026.88533388201,-21527.769747706625,151.9024553182668,-5816.862680538021,-21808.88763772102,-37685.71170398137,0.156,1.004,0.222,192.0,0.0,0.0,0.0,0.0,0.0,0.0,0.0,0.0,0.0,1696033278.678077,0.0,2023-09-29 19:21:18.678
138.0,-42786.960934038274,21556.894070731887,-41419.03417337348,-25210.33140544074,-11282.601807427622,-13989.375709220853,-187500.02235174447,-4588.142584340881,-8180.492601453377,26232.83430729321,-26168.729504195395,-21532.48596578669,164.12885953531975,-5864.695413672378,-21826.5008123518,-37756.96906530489,0.152,1.008,0.22,192.0,2.0,96.0,15.5,64.0,3.0,112.0,0.0,0.0,0.0,1696033278.678089,0.0,2023-09-29 19:21:18.678
140.0,-42801.64603014541,21987.813352085752,-41412.39570527026,-25096.69513662996,-11259.221882727372,-13969.52736014454,-187500.02235174447,-4564.717956151719,-8116.9912954558495,26337.95456146653,-26046.5995724916,-21517.93498014629,179.97624635413246,-5799.383616373971,-21811.39103310001,-37703.68250652344,0.152,1.008,0.22,192.0,0.0,0.0,0.0,0.0,0.0,0.0,0.0,0.0,0.0,1696033278.678093,0.0,2023-09-29 19:21:18.678
142.0,-42784.90457354839,21594.914388050365,-41434.21100785864,-25234.27012375237,-11286.401603985025,-13991.186200521732,-187500.02235174447,-4601.285410080602,-8194.082462082204,26247.944086545,-26130.35155896563,-21536.88925944439,162.00544381206558,-5855.128867045506,-21836.93907701243,-37759.38305370606,0.152,1.008,0.22,192.0,0.0,0.0,0.0,0.0,0.0,0.0,0.0,0.0,0.0,1696033278.678096,0.0,2023-09-29 19:21:18.678
144.0,-42788.436149172325,21965.953346008464,-41410.6746209472,-25105.97111057891,-11247.978955266351,-13954.439932637208,-187500.02235174447,-4562.23691251718,-8135.364429398111,26330.422023585084,-26084.642241554528,-21522.226515081707,175.93058060772188,-5803.00459897573,-21811.592198800117,-37715.43952410693,0.152,1.008,0.22,192.0,0.0,0.0,0.0,0.0,0.0,0.0,0.0,0.0,0.0,1696033278.678099,0.0,2023-09-29 19:21:18.678
146.0,-42785.932753793335,21610.11357427997,-41426.94669091066,-25237.309960998293,-11280.254874259816,-13983.228979495643,-187500.02235174447,-4603.297067081579,-8177.676281652008,26274.18503453553,-26109.720898833384,-21527.59093375098,167.63808341480296,-5840.4214191939145,-21822.812774516675,-37743.5580186317,0.152,1.008,0.22,192.0,0.0,0.0,0.0,0.0,0.0,0.0,0.0,0.0,0.0,1696033278.678102,0.0,2023-09-29 19:21:18.678
148.0,-42804.26118424669,21968.613203598645,-41411.68044944769,-25109.9273693475,-11252.494007646324,-13962.374801918842,-187500.02235174447,-4575.089165578981,-8140.237109689368,26311.66890998708,-26097.38273589405,-21519.11962260242,166.185220025208,-5809.53130835668,-21811.860419733577,-37714.05371595069,0.152,0.992,0.218,192.0,2.0,96.0,15.5,0.0,3.0,104.0,0.0,0.0,0.0,1696033278.678106,0.0,2023-09-29 19:21:18.678
150.0,-42781.37299792445,21687.13768567296,-41440.00010967256,-25250.206917549007,-11289.352034253125,-13994.270741256563,-187500.02235174447,-4619.345619600489,-8168.936749569983,26274.76617989137,-26078.92019497397,-21535.369340821428,154.91994081973326,-5836.532215658691,-21830.74764379831,-37745.23439946585,0.152,0.992,0.218,192.0,0.0,0.0,0.0,0.0,0.0,0.0,0.0,0.0,0.0,1696033278.678109,0.0,2023-09-29 19:21:18.678
152.0,-42787.60913462748,21915.48310702838,-41404.32672552189,-25117.61636944013,-11240.22289994036,-13949.723714557138,-187500.02235174447,-4570.819982388018,-8142.405228901533,26279.728267160448,-26139.113442792117,-21521.33244530349,170.34264449389514,-5818.2931921831605,-21806.18307664193,-37730.7057655699,0.152,0.992,0.218,192.0,0.0,0.0,0.0,0.0,0.0,0.0,0.0,0.0,0.0,1696033278.738301,0.0,2023-09-29 19:21:18.738
154.0,-42778.42256765635,21711.501087129247,-41445.45393531966,-25247.725873914467,-11290.670787175988,-13994.29309300102,-187500.02235174447,-4628.308669127067,-8148.842531304662,26324.901142704624,-26052.746302216805,-21524.48404127169,156.2610454870517,-5826.764503331721,-21818.253018647792,-37733.41032664899,0.152,0.992,0.218,192.0,0.0,0.0,0.0,0.0,0.0,0.0,0.0,0.0,0.0,1696033278.73831,0.0,2023-09-29 19:21:18.738
156.0,-42802.2048237568,21853.702885353912,-41407.81359765692,-25126.981750366896,-11244.290917431226,-13956.47394138264,-187500.02235174447,-4577.659616191342,-8162.588854144676,26263.03151405233,-26163.20862331493,-21522.6288464819,156.86454258734497,-5839.1920732488725,-21810.36285285507,-37740.56288487469,0.152,0.992,0.218,192.0,0.0,0.0,0.0,0.0,0.0,0.0,0.0,0.0,0.0,1696033278.738314,0.0,2023-09-29 19:21:18.738
158.0,-42791.4983381627,21786.200617098883,-41452.36062435635,-25234.6053999192,-11295.163487811506,-13999.232828525644,-187500.02235174447,-4621.469035323744,-8143.455760890933,26308.427907041063,-26022.77261290224,-21525.55692500555,148.7061558611579,-5824.909308541931,-21818.632998303536,-37721.49684685432,0.146,0.982,0.224,192.0,2.0,72.0,15.0,88.0,3.5,0.0,0.0,0.0,0.0,1696033278.738318,0.0,2023-09-29 19:21:18.738
160.0,-42802.45069294581,21815.012015701774,-41412.14983608125,-25147.50065177687,-11244.290917431226,-13962.48656064112,-187500.02235174447,-4572.921046366817,-8163.326461711701,26222.66426356605,-26185.806236959248,-21534.229401854205,144.14639999227524,-5873.25613179876,-21820.17526867095,-37754.7115391149,0.146,0.982,0.224,192.0,0.0,0.0,0.0,0.0,0.0,0.0,0.0,0.0,0.0,1696033278.738321,0.0,2023-09-29 19:21:18.738
162.0,-42780.65774210188,21827.7525100413,-41446.77268824252,-25230.33621672824,-11288.815592386198,-13992.884933100337,-187500.02235174447,-4612.148357885881,-8128.122464194592,26328.1644973951,-26014.23424652031,-21540.21966936823,145.64396687078082,-5831.637183622978,-21823.013940216773,-37717.58529157464,0.146,0.982,0.224,192.0,0.0,0.0,0.0,0.0,0.0,0.0,0.0,0.0,0.0,1696033278.738324,0.0,2023-09-29 19:21:18.738
164.0,-42804.81997785807,21739.64193339848,-41410.96519362512,-25152.77566346832,-11248.6048041111,-13961.726601329638,-187500.02235174447,-4570.708223665742,-8187.399290490066,26221.72549029893,-26210.259045393355,-21533.581201265,150.8295715844121,-5865.410669494948,-21823.706844294888,-37753.8621728256,0.146,0.982,0.224,192.0,0.0,0.0,0.0,0.0,0.0,0.0,0.0,0.0,0.0,1696033278.738327,0.0,2023-09-29 19:21:18.738
166.0,-42801.8024923566,21868.43268494996,-41444.06812716343,-25210.17494322955,-11291.18487729846,-14001.669168671271,-187500.02235174447,-4618.183328888814,-8130.000010728838,26325.0129014269,-26004.712403382357,-21539.41500656784,147.476809916116,-5826.585689376079,-21827.238419918827,-37713.07023919466,0.146,0.982,0.224,192.0,0.0,0.0,0.0,0.0,0.0,0.0,0.0,0.0,0.0,1696033278.798594,0.0,2023-09-29 19:21:18.798
168.0,-42786.04451251561,21663.28837433915,-41399.141120808265,-25169.718285765444,-11244.22386219786,-13968.521531644052,-187500.02235174447,-4575.513848723633,-8182.504258454354,26192.62351901812,-26224.117126955647,-21542.700713002767,145.82278082642327,-5880.1628208354505,-21828.71363505288,-37769.307228244215,0.15,0.998,0.218,192.0,2.0,88.0,15.5,24.0,3.0,104.0,0.0,0.0,0.0,1696033278.798612,0.0,2023-09-29 19:21:18.798
170.0,-42790.76073059568,21920.601656508643,-41431.81937120192,-25184.112809194663,-11282.065365560697,-13999.255180270098,-187500.02235174447,-4611.321343341034,-8109.145833152036,26354.02546572989,-25995.72700211132,-21538.56564027853,143.31938544742889,-5823.814073063621,-21816.666044791466,-37705.96238445788,0.15,0.998,0.218,192.0,0.0,0.0,0.0,0.0,0.0,0.0,0.0,0.0,0.0,1696033278.798616,0.0,2023-09-29 19:21:18.798
172.0,-42805.33406798054,21648.983257887758,-41408.97588836859,-25184.85041676169,-11258.998365282818,-13984.570084162962,-187500.02235174447,-4592.635284976397,-8190.752052158363,26196.80329523126,-26220.920827498536,-21544.757073492656,136.85973129984515,-5891.361044807559,-21831.820527532163,-37777.0185800813,0.15,0.998,0.218,192.0,0.0,0.0,0.0,0.0,0.0,0.0,0.0,0.0,0.0,1696033278.798619,0.0,2023-09-29 19:21:18.798
174.0,-42804.23883250223,21960.991258739385,-41423.05748737544,-25164.93501245201,-11274.488124190346,-13991.43206971074,-187500.02235174447,-4601.352465313968,-8118.868841990095,26341.486137090465,-26007.752240628277,-21536.710445488745,147.70032736066906,-5830.944279544864,-21813.536800567723,-37709.11398042608,0.15,0.998,0.218,192.0,0.0,0.0,0.0,0.0,0.0,0.0,0.0,0.0,0.0,1696033278.798622,0.0,2023-09-29 19:21:18.798
176.0,-42803.65768714639,21628.7549291557,-41418.78830418448,-25202.12831522564,-11269.503685176813,-13994.158982534287,-187500.02235174447,-4601.397168802878,-8193.680130682007,26200.64779527757,-26217.94804548598,-21552.46842532974,124.0074782380436,-5905.174422880938,-21826.366701885072,-37773.062321312704,0.15,0.998,0.218,192.0,0.0,0.0,0.0,0.0,0.0,0.0,0.0,0.0,0.0,1696033278.798625,0.0,2023-09-29 19:21:18.798
178.0,-42803.38946621293,21980.25846245986,-41424.55505425394,-25147.27713433232,-11272.476467189368,-13986.872313841855,-187500.02235174447,-4599.676084479819,-8120.187594912958,26341.79906151284,-26031.020406606247,-21542.79011998059,130.0871527298871,-5826.988020776274,-21811.45808833338,-37709.06927693716,0.148,0.996,0.222,192.0,2.0,80.0,15.5,16.0,3.0,120.0,0.0,0.0,0.0,1696033278.798628,0.0,2023-09-29 19:21:18.798
180.0,-42798.80735859959,21567.75701853717,-41412.1274843368,-25207.51508563937,-11271.001252055315,-13984.324214973953,-187500.02235174447,-4600.659561235852,-8202.397311019577,26204.93933021299,-26213.14242042809,-21537.26923910013,132.36703066432844,-5892.366873308048,-21823.37156812806,-37765.12745203108,0.148,0.996,0.222,192.0,0.0,0.0,0.0,0.0,0.0,0.0,0.0,0.0,0.0,1696033278.798631,0.0,2023-09-29 19:21:18.798
182.0,-42807.36807672597,21997.53636092381,-41415.94963263865,-25121.237352041884,-11274.577531168168,-13984.413621951777,-187500.02235174447,-4592.501174509665,-8119.181766412469,26343.430738858075,-26034.23905780781,-21529.64729424087,132.5905481088815,-5827.703276598844,-21810.564018555167,-37696.50759655328,0.148,0.996,0.222,192.0,0.0,0.0,0.0,0.0,0.0,0.0,0.0,0.0,0.0,1696033278.857926,0.0,2023-09-29 19:21:18.857
184.0,-42775.82976529953,21558.81632075505,-41409.93701338017,-25221.79785034631,-11275.873932346574,-13995.969473835168,-187500.02235174447,-4614.227070120224,-8196.138822572091,26204.76051625735,-26198.010289431848,-21548.55687005006,115.64792581175874,-5902.73808273531,-21833.787481044237,-37766.781481120765,0.148,0.996,0.222,192.0,0.0,0.0,0.0,0.0,0.0,0.0,0.0,0.0,0.0,1696033278.857936,0.0,2023-09-29 19:21:18.857
186.0,-42805.82580635855,21992.28370097681,-41404.90787087773,-25112.654282171046,-11270.308347977205,-13992.48260170014,-187500.02235174447,-4596.412729789345,-8097.165298123992,26336.680512032573,-26060.48000579834,-21538.25271585616,129.01426899603237,-5849.20565476485,-21811.70395752239,-37706.2976606247,0.148,0.996,0.222,192.0,0.0,0.0,0.0,0.0,0.0,0.0,0.0,0.0,0.0,1696033278.857939,0.0,2023-09-29 19:21:18.857
188.0,-42800.41668420037,21588.812361814067,-41415.86022566083,-25232.03494930684,-11294.247066288835,-14015.907229889302,-187500.02235174447,-4627.3922476044,-8203.894877898083,26220.116164698145,-26168.46128326193,-21552.02139044063,112.76455077702413,-5904.012132169263,-21838.61545784658,-37769.28487649976,0.148,1.002,0.216,192.0,2.0,80.0,15.5,40.0,3.0,96.0,0.0,0.0,0.0,1696033278.857942,0.0,2023-09-29 19:21:18.857
190.0,-42812.46427446178,22001.760840625862,-41391.96621083811,-25095.39873545155,-11262.149961251016,-13987.67697664225,-187500.02235174447,-4585.393319772878,-8136.929051509983,26308.78553495235,-26077.512035073287,-21526.74156746168,138.8937400452781,-5840.779047105199,-21806.428945830936,-37714.36664037307,0.148,1.002,0.216,192.0,0.0,0.0,0.0,0.0,0.0,0.0,0.0,0.0,0.0,1696033278.857945,0.0,2023-09-29 19:21:18.857
192.0,-42788.45850091678,21622.60819943049,-41419.63767047378,-25229.71036788349,-11293.08477557716,-14015.14727057782,-187500.02235174447,-4623.659506280364,-8188.405118990555,26246.29005745531,-26132.854954344628,-21539.772634479123,116.43023686769448,-5892.255114585772,-21827.998379230303,-37761.57352466268,0.148,1.002,0.216,192.0,0.0,0.0,0.0,0.0,0.0,0.0,0.0,0.0,0.0,1696033278.857949,0.0,2023-09-29 19:21:18.857
194.0,-42788.57025963906,21953.59283132468,-41391.74269339356,-25089.699040615447,-11246.816664554675,-13971.986052034625,-187500.02235174447,-4567.847200375462,-8124.724999037386,26307.86911342968,-26106.54695112073,-21520.304265058552,136.30093768846243,-5839.326183715604,-21803.344405096104,-37720.35690788709,0.148,1.002,0.216,192.0,0.0,0.0,0.0,0.0,0.0,0.0,0.0,0.0,0.0,1696033278.857952,0.0,2023-09-29 19:21:18.857
196.0,-42780.14365197941,21631.37008325697,-41430.59002525688,-25229.7550713724,-11290.536676709256,-14009.715796675182,-187500.02235174447,-4614.428235820322,-8161.09128726617,26274.453255469,-26107.79864881023,-21541.136090890897,123.4486846266609,-5872.049137598174,-21819.5494198262,-37741.4569546529,0.148,1.002,0.216,192.0,0.0,0.0,0.0,0.0,0.0,0.0,0.0,0.0,0.0,1696033278.91778,0.0,2023-09-29 19:21:18.917
198.0,-42803.76944586867,21909.22461858089,-41397.33062950738,-25097.857427341634,-11249.61063261159,-13974.62355788035,-187500.02235174447,-4561.544008439066,-8134.000972986338,26276.040229325325,-26140.387492226066,-21531.8824686864,130.02009749652117,-5855.620605423523,-21806.25013187529,-37721.005108476296,0.148,1.0,0.214,192.0,2.0,80.0,15.5,32.0,3.0,88.0,0.0,0.0,0.0,1696033278.917815,0.0,2023-09-29 19:21:18.917
200.0,-42796.05809403159,21676.922938456886,-41434.166304369726,-25234.650103408112,-11296.929275623474,-14015.460195000196,-187500.02235174447,-4615.076436409526,-8169.406136203544,26274.140331046623,-26082.92115723147,-21548.422759583325,126.84614978386756,-5886.890695916498,-21826.098480951605,-37732.15862895949,0.148,1.0,0.214,192.0,0.0,0.0,0.0,0.0,0.0,0.0,0.0,0.0,0.0,1696033278.91782,0.0,2023-09-29 19:21:18.917
202.0,-42811.57020468357,21868.72325762788,-41397.04005682946,-25106.261683256827,-11247.420161654967,-13973.058935768478,-187500.02235174447,-4563.600368928954,-8156.576234886198,26262.67388614105,-26169.80238792925,-21536.55398327756,138.29024294498478,-5857.051117068662,-21813.93913196792,-37731.59983534811,0.148,1.0,0.214,192.0,0.0,0.0,0.0,0.0,0.0,0.0,0.0,0.0,0.0,1696033278.917825,0.0,2023-09-29 19:21:18.917
204.0,-42789.33021895054,21717.692520343368,-41437.31790033793,-25233.308998740795,-11299.164450069004,-14014.856697899902,-187500.02235174447,-4618.473901566733,-8150.541263883265,26307.71265121849,-26059.67534299795,-21549.138015405897,128.8131032959346,-5860.068602570129,-21827.66310306348,-37725.16253294498,0.148,1.0,0.214,192.0,0.0,0.0,0.0,0.0,0.0,0.0,0.0,0.0,0.0,1696033278.91783,0.0,2023-09-29 19:21:18.917
206.0,-42810.6537831609,21810.63107378853,-41396.41420798472,-25118.89041887408,-11247.375458166058,-13976.85873232588,-187500.02235174447,-4567.489572464177,-8170.456668192944,26234.33187417172,-26188.197873615965,-21538.342122833983,138.69257434518033,-5870.663329441944,-21815.660216290977,-37740.74169883033,0.148,1.0,0.214,192.0,0.0,0.0,0.0,0.0,0.0,0.0,0.0,0.0,0.0,1696033278.917834,0.0,2023-09-29 19:21:18.917
208.0,-42782.98232352523,21786.804114199174,-41435.418002059225,-25216.232265976934,-11295.789336656251,-14013.292075788033,-187500.02235174447,-4613.310648597557,-8143.478112635388,26305.209255839494,-26026.080671081625,-21547.819262483037,125.08036197189833,-5857.296986257671,-21820.287027393228,-37716.53475958524,0.152,0.992,0.22,192.0,2.0,96.0,15.5,0.0,3.0,112.0,0.0,0.0,0.0,1696033278.917839,0.0,2023-09-29 19:21:18.917
210.0,-42794.13584400843,21755.60107893957,-41401.018667342505,-25129.75336667936,-11251.599937868112,-13969.61676712236,-187500.02235174447,-4569.590636442976,-8169.09321178117,26217.34454838569,-26200.200760388467,-21533.894125687377,128.4554753846497,-5881.59333248059,-21817.56011456968,-37747.02253902228,0.152,0.992,0.22,192.0,0.0,0.0,0.0,0.0,0.0,0.0,0.0,0.0,0.0,1696033278.917844,0.0,2023-09-29 19:21:18.917
212.0,-42779.294285690106,21850.46188240789,-41436.69205149318,-25198.686146579523,-11297.488069234858,-14010.49810773112,-187500.02235174447,-4624.598279547487,-8114.040865187749,26351.79029128436,-26001.560807414156,-21535.34698907697,129.37189690731728,-5836.10753251404,-21819.12473668155,-37703.861320479074,0.152,0.992,0.22,192.0,0.0,0.0,0.0,0.0,0.0,0.0,0.0,0.0,0.0,1696033278.977925,0.0,2023-09-29 19:21:18.977
214.0,-42799.54496616661,21706.024909737695,-41395.25191727304,-25144.17024185303,-11260.764153094788,-13979.116258515867,-187500.02235174447,-4587.404976773855,-8176.80456361825,26229.079214224723,-26207.66624303654,-21523.008826137644,130.9588707636441,-5881.280408058216,-21827.305475152192,-37760.94767581793,0.152,0.992,0.22,192.0,0.0,0.0,0.0,0.0,0.0,0.0,0.0,0.0,0.0,1696033278.977944,0.0,2023-09-29 19:21:18.977
216.0,-42787.65383811639,21892.796086406244,-41430.4782665346,-25173.56278581176,-11298.605656457625,-14004.709005917191,-187500.02235174447,-4618.809177733562,-8114.219679143391,26359.36753265471,-25988.2838712077,-21514.962198133733,131.78588530849044,-5832.419494678914,-21817.40365235849,-37701.06735242216,0.152,0.992,0.22,192.0,0.0,0.0,0.0,0.0,0.0,0.0,0.0,0.0,0.0,1696033278.977948,0.0,2023-09-29 19:21:18.977
218.0,-42779.36134092348,21638.679103693856,-41398.917603363705,-25151.769834967832,-11260.22771122786,-13978.28924397102,-187500.02235174447,-4579.71597668123,-8177.028081062804,26221.211400176457,-26218.68565305301,-21523.50056451566,120.2076816806414,-5884.722576704333,-21825.316169895672,-37763.42871945247,0.15,0.992,0.216,192.0,2.0,88.0,15.5,0.0,3.0,96.0,0.0,0.0,0.0,1696033278.977951,0.0,2023-09-29 19:21:18.977
220.0,-42787.184451482826,21926.43546181148,-41428.86894093382,-25148.484128532906,-11284.792278384242,-14003.233790783142,-187500.02235174447,-4606.828642705517,-8108.072949418181,26372.867986305715,-25993.00008928777,-21518.33731154648,125.61680383882567,-5826.719799842811,-21809.08880342112,-37693.378352329535,0.15,0.992,0.216,192.0,0.0,0.0,0.0,0.0,0.0,0.0,0.0,0.0,0.0,1696033278.977955,0.0,2023-09-29 19:21:18.977
222.0,-42795.14167250892,21609.06304229057,-41408.05946684593,-25171.037038688308,-11268.251987487316,-13995.29892150151,-187500.02235174447,-4597.217392589735,-8191.914342870038,26209.76730701534,-26220.42908912052,-21528.77557620711,113.41275136622804,-5905.934382192419,-21825.60674257359,-37764.12162353058,0.15,0.992,0.216,192.0,0.0,0.0,0.0,0.0,0.0,0.0,0.0,0.0,0.0,1696033278.977959,0.0,2023-09-29 19:21:18.977
224.0,-42797.265088232176,21950.26242140084,-41419.30239430695,-25144.61727674213,-11281.70773764941,-14003.591418694428,-187500.02235174447,-4608.2815060951125,-8119.271173390291,26352.907878507125,-26010.792077874197,-21525.69103547228,128.8131032959346,-5843.170683761917,-21810.966349955364,-37701.4473320779,0.15,0.992,0.216,192.0,0.0,0.0,0.0,0.0,0.0,0.0,0.0,0.0,0.0,1696033278.977962,0.0,2023-09-29 19:21:18.977
226.0,-42787.2515067162,21560.7385707782,-41397.97883009659,-25194.036983732814,-11267.961414809395,-13985.687671385727,-187500.02235174447,-4588.656674463353,-8194.216572548936,26199.99959468837,-26215.53405708481,-21535.749320477167,116.20671942314142,-5915.344466608103,-21823.863306506075,-37769.597800922136,0.15,0.992,0.216,192.0,0.0,0.0,0.0,0.0,0.0,0.0,0.0,0.0,0.0,1696033279.039633,0.0,2023-09-29 19:21:19.039
228.0,-42789.41962592836,21973.26236644535,-41407.09834183435,-25124.657168943548,-11275.225731757371,-13985.933540574735,-187500.02235174447,-4590.355407041956,-8105.726016250374,26345.64356155915,-26015.083612809613,-21532.955352420253,122.4652078706274,-5843.952994817852,-21801.578617284136,-37689.2432796053,0.148,0.994,0.222,192.0,2.0,80.0,15.5,8.0,3.0,120.0,0.0,0.0,0.0,1696033279.039669,0.0,2023-09-29 19:21:19.039
230.0,-42791.96772479627,21549.674457272824,-41402.024495843,-25202.53064662584,-11281.484220204857,-13988.638101653827,-187500.02235174447,-4598.871421679428,-8180.872581109117,26206.883931980603,-26197.876178965114,-21545.226460126218,100.6499052822477,-5921.401789355492,-21822.52220183876,-37758.19841124993,0.148,0.994,0.222,192.0,0.0,0.0,0.0,0.0,0.0,0.0,0.0,0.0,0.0,1696033279.039673,0.0,2023-09-29 19:21:19.039
232.0,-42799.72378012226,21985.8911020626,-41397.598850440845,-25098.997366308853,-11278.980824825863,-13977.328118959442,-187500.02235174447,-4582.308779038046,-8114.376141354578,26332.232514885967,-26031.176868817434,-21524.12641336041,119.9171090027224,-5834.25233772425,-21800.03634691672,-37684.03532314722,0.148,0.994,0.222,192.0,0.0,0.0,0.0,0.0,0.0,0.0,0.0,0.0,0.0,1696033279.039676,0.0,2023-09-29 19:21:19.039
234.0,-42803.21065225729,21564.35955337996,-41408.707667435134,-25208.207989717484,-11296.057557589718,-14000.082194814944,-187500.02235174447,-4611.746026485685,-8187.801621890262,26207.39802210308,-26175.524434509807,-21539.392654823383,101.40986459372814,-5910.114158405561,-21822.54455358321,-37749.168306489984,0.148,0.994,0.222,192.0,0.0,0.0,0.0,0.0,0.0,0.0,0.0,0.0,0.0,1696033279.039679,0.0,2023-09-29 19:21:19.039
236.0,-42797.75682661019,21992.484866676918,-41397.84471962985,-25092.31419471672,-11273.303481734214,-13987.475810942153,-187500.02235174447,-4595.630418733409,-8118.980600712372,26320.989587424945,-26062.04462791021,-21528.149727362365,114.15035893325316,-5859.241588025283,-21805.46782081936,-37697.33461109813,0.148,0.994,0.222,192.0,0.0,0.0,0.0,0.0,0.0,0.0,0.0,0.0,0.0,1696033279.039682,0.0,2023-09-29 19:21:19.039
238.0,-42776.85794554448,21565.52184409164,-41409.24410930206,-25224.100080025208,-11293.442403488449,-14016.510726989596,-187500.02235174447,-4633.986012218716,-8178.436240963489,26232.83430729321,-26158.157129068037,-21535.995189666177,99.86759422631197,-5918.406655598481,-21826.053777462697,-37757.10317577162,0.152,0.996,0.22,192.0,2.0,96.0,15.5,16.0,3.0,112.0,0.0,0.0,0.0,1696033279.039686,0.0,2023-09-29 19:21:19.039
240.0,-42796.88510857643,21957.14675869307,-41390.02160907049,-25090.995441793853,-11260.071249016672,-13996.72943314665,-187500.02235174447,-4599.4749187797215,-8107.000065684327,26320.430793813564,-26089.984308479347,-21521.846535425968,116.05025721195427,-5870.551570719668,-21802.13741089552,-37710.07510543765,0.152,0.996,0.22,192.0,0.0,0.0,0.0,0.0,0.0,0.0,0.0,0.0,0.0,1696033279.039689,0.0,2023-09-29 19:21:19.039
242.0,-42783.49641364771,21599.65295787489,-41411.70280119214,-25217.93099855554,-11300.013816358309,-14026.859584672402,-187500.02235174447,-4639.641003565908,-8165.829857090695,26253.554374403284,-26120.047404771736,-21532.75418672016,98.48178607008292,-5926.095655691106,-21822.030463460746,-37751.71640535789,0.152,0.996,0.22,192.0,0.0,0.0,0.0,0.0,0.0,0.0,0.0,0.0,0.0,1696033279.098454,0.0,2023-09-29 19:21:19.098
244.0,-42788.726721850246,21937.92425846151,-41377.68344613117,-25071.884700284565,-11256.047935014718,-13990.426241210253,-187500.02235174447,-4595.295142566579,-8124.948516481939,26290.188883565534,-26104.244721441835,-21512.078823099,122.33109740389555,-5875.848934155576,-21801.10923065057,-37714.16547467297,0.152,0.996,0.22,192.0,0.0,0.0,0.0,0.0,0.0,0.0,0.0,0.0,0.0,1696033279.098461,0.0,2023-09-29 19:21:19.098
246.0,-42770.46534663026,21654.124159112474,-41406.606603456334,-25206.53160888333,-11304.037130360262,-14016.86835490088,-187500.02235174447,-4631.549672073087,-8152.463513906421,26287.19374980852,-26083.72582003186,-21526.003959894653,103.10859717233149,-5911.410559583969,-21817.38130061404,-37728.694108568925,0.152,0.996,0.22,192.0,0.0,0.0,0.0,0.0,0.0,0.0,0.0,0.0,0.0,1696033279.098465,0.0,2023-09-29 19:21:19.098
248.0,-42793.46529167477,21876.4122577205,-41367.35694019282,-25074.23163345237,-11258.864254816086,-13971.62842412334,-187500.02235174447,-4572.4293079888,-8129.709438050919,26281.091723572223,-26136.006550312824,-21514.805735922542,114.73150428909116,-5893.573867508634,-21799.052870160685,-37707.504654825294,0.15,0.99,0.214,192.0,2.0,88.0,15.0,120.0,3.0,88.0,0.0,0.0,0.0,1696033279.098469,0.0,2023-09-29 19:21:19.098
250.0,-42770.89002977491,21671.24559536524,-41405.6231267003,-25199.311995424272,-11301.220810558892,-14010.654569942304,-187500.02235174447,-4618.630363777919,-8132.190481685458,26286.21027305249,-26052.92511617245,-21524.394634293876,100.69460877115831,-5903.520393791247,-21805.93720745292,-37706.99056470282,0.15,0.99,0.214,192.0,0.0,0.0,0.0,0.0,0.0,0.0,0.0,0.0,0.0,1696033279.098472,0.0,2023-09-29 19:21:19.098
252.0,-42802.87537609046,21825.58439082913,-41378.152832764725,-25082.814703323213,-11260.428876927956,-13979.965624805169,-187500.02235174447,-4576.072642335015,-8135.520891609299,26247.653513867084,-26156.681913933982,-21514.313997544527,101.2981058714516,-5905.375588581037,-21802.78561148472,-37713.91960548396,0.15,0.99,0.214,192.0,0.0,0.0,0.0,0.0,0.0,0.0,0.0,0.0,0.0,1696033279.098475,0.0,2023-09-29 19:21:19.098
254.0,-42778.847250801,21710.09292722856,-41421.96225189713,-25211.60545487469,-11310.586191485669,-14022.165718336788,-187500.02235174447,-4634.544805830098,-8152.977604028893,26308.092630874235,-26037.3459502871,-21535.190526865787,92.3574080893288,-5915.7915014972095,-21823.952713483897,-37717.495884596814,0.15,0.99,0.214,192.0,0.0,0.0,0.0,0.0,0.0,0.0,0.0,0.0,0.0,1696033279.098478,0.0,2023-09-29 19:21:19.098
0.0,-42797.95799231029,21735.953895563354,-41380.9691525661,-25110.24029376987,-11256.6067286261,-13982.424316695253,-187500.02235174447,-4582.353482526956,-8171.931883326994,26250.33572320172,-26199.86548422164,-21532.75418672016,105.0084954510326,-5919.591298054612,-21818.74475702581,-37743.15568723151,0.15,0.99,0.214,192.0,0.0,0.0,0.0,0.0,0.0,0.0,0.0,0.0,0.0,1696033279.15795,0.0,2023-09-29 19:21:19.157
2.0,-42802.42834120135,21762.999506354277,-41421.984603641584,-25199.535512868824,-11309.088624607162,-14029.407683540308,-187500.02235174447,-4638.322250643045,-8132.346943896645,26306.237436084444,-26018.63754017801,-21542.678361258317,92.44681506715,-5900.346446078593,-21819.303550637196,-37709.69512578191,0.156,0.99,0.214,192.0,2.0,112.0,15.0,120.0,3.0,88.0,0.0,0.0,0.0,1696033279.157961,0.0,2023-09-29 19:21:19.157
4.0,-42810.76554188318,21695.58664507707,-41386.28886774646,-25123.807802654246,-11272.811743356198,-13996.505915702097,-187500.02235174447,-4600.860726935951,-8178.793868874774,26197.3844405871,-26211.935426227505,-21537.380997822405,92.64798076724776,-5934.3434493951145,-21821.60578031609,-37754.219800736886,0.156,0.99,0.214,192.0,0.0,0.0,0.0,0.0,0.0,0.0,0.0,0.0,0.0,1696033279.157964,0.0,2023-09-29 19:21:19.157
6.0,-42788.81612882807,21816.576637813647,-41411.21106281412,-25175.350925368184,-11308.57453448469,-14024.49029976014,-187500.02235174447,-4640.579776833031,-8129.955307239928,26316.496886789428,-26007.975758072826,-21536.486928044196,97.43125408068347,-5889.416443039947,-21818.185963414428,-37707.571710058655,0.156,0.99,0.214,192.0,0.0,0.0,0.0,0.0,0.0,0.0,0.0,0.0,0.0,1696033279.157967,0.0,2023-09-29 19:21:19.157
8.0,-42782.31177119157,21644.021170618675,-41373.07898677338,-25129.17222132352,-11270.129534021562,-13989.82274410996,-187500.02235174447,-4609.868479951439,-8178.257427007846,26201.608920289156,-26213.969434972936,-21537.537460033596,93.58675403437068,-5942.881815777042,-21821.31520763817,-37755.113870515095,0.156,0.99,0.214,192.0,0.0,0.0,0.0,0.0,0.0,0.0,0.0,0.0,0.0,1696033279.15797,0.0,2023-09-29 19:21:19.157
10.0,-42761.25642791468,21869.77378961728,-41402.11390282082,-25146.137195365096,-11299.343264024648,-14011.593343209428,-187500.02235174447,-4637.472884353743,-8094.79601321173,26364.19550945705,-25986.20515897336,-21520.39367203637,102.79567274995718,-5885.080204615618,-21805.668986519457,-37683.20830860237,0.156,0.99,0.214,192.0,0.0,0.0,0.0,0.0,0.0,0.0,0.0,0.0,0.0,1696033279.157973,0.0,2023-09-29 19:21:19.157
12.0,-42794.71698936427,21589.01352751417,-41377.37052170879,-25143.007951141357,-11281.6630341605,-14003.01027333859,-187500.02235174447,-4615.814043976551,-8175.172886273013,26197.51855105383,-26216.249312907377,-21529.60259075196,91.19511737765282,-5957.723374095366,-21819.616475059567,-37750.53176290176,0.154,0.99,0.212,192.0,2.0,104.0,15.0,120.0,3.0,80.0,0.0,0.0,0.0,1696033279.157977,0.0,2023-09-29 19:21:19.157
14.0,-42798.04739928811,21885.08473456916,-41399.834024886375,-25130.69213994648,-11301.578438470178,-14018.72354969067,-187500.02235174447,-4629.649773794386,-8112.632705287065,26338.491003333453,-25996.79988584517,-21522.67354997081,100.3146291154181,-5890.422271540436,-21810.65342553299,-37685.42113130345,0.154,0.99,0.212,192.0,0.0,0.0,0.0,0.0,0.0,0.0,0.0,0.0,0.0,1696033279.15798,0.0,2023-09-29 19:21:19.157
16.0,-42789.3972741839,21529.35672156295,-41384.3666177233,-25164.64443977409,-11281.95360683842,-14007.905305374305,-187500.02235174447,-4612.461282308255,-8192.80841264825,26183.57106251372,-26215.802278018276,-21530.943695419275,85.85305045283442,-5961.456115419402,-21821.717539038367,-37753.83982108114,0.154,0.99,0.212,192.0,0.0,0.0,0.0,0.0,0.0,0.0,0.0,0.0,0.0,1696033279.217703,0.0,2023-09-29 19:21:19.217
18.0,-42789.19610848381,21916.198362850948,-41401.71157142062,-25119.87389563011,-11287.966226096896,-14018.142404334832,-187500.02235174447,-4625.648811536886,-8100.830984214662,26338.334541122265,-26005.45001094937,-21534.139994876383,97.87828896978962,-5896.367835565548,-21803.970253940854,-37682.56010801317,0.154,0.99,0.212,192.0,0.0,0.0,0.0,0.0,0.0,0.0,0.0,0.0,0.0,1696033279.217711,0.0,2023-09-29 19:21:19.217
20.0,-42770.15242220789,21510.11186958693,-41387.5182136915,-25187.46557086296,-11280.85837136011,-14019.595267724428,-187500.02235174447,-4627.526358071132,-8169.249673992357,26192.824684718216,-26202.39123134509,-21545.472329315227,86.68006499768079,-5965.814705588187,-21819.48236459284,-37757.12552751607,0.154,0.99,0.212,192.0,0.0,0.0,0.0,0.0,0.0,0.0,0.0,0.0,0.0,1696033279.217715,0.0,2023-09-29 19:21:19.217
22.0,-42814.319469251575,21940.494709073868,-41394.84958587284,-25108.25098851335,-11281.975958582874,-14019.081177601956,-187500.02235174447,-4629.113331927459,-8099.646341758531,26326.01872992739,-26018.548133200187,-21534.96700942123,91.26217261101874,-5900.771129223243,-21800.662195761462,-37690.71849473936,0.152,0.99,0.214,192.0,2.0,96.0,15.0,120.0,3.0,88.0,0.0,0.0,0.0,1696033279.217718,0.0,2023-09-29 19:21:19.217
24.0,-42797.06392253208,21520.706596458745,-41390.26747825951,-25199.22258844645,-11293.57651395518,-14028.759482951104,-187500.02235174447,-4639.73041054373,-8200.787985418796,26205.05108893527,-26184.688649736483,-21538.78915772309,78.40991954921718,-5980.1868772729495,-21824.93619023993,-37765.865059598094,0.152,0.99,0.214,192.0,0.0,0.0,0.0,0.0,0.0,0.0,0.0,0.0,0.0,1696033279.217722,0.0,2023-09-29 19:21:19.217
26.0,-42800.93077432284,21955.805654025757,-41384.94776307914,-25087.754438847835,-11279.89724634853,-14004.194915794722,-187500.02235174447,-4609.19792761778,-8120.1652431685025,26320.67666300257,-26037.144784587003,-21524.998131394164,91.23982086656343,-5908.482481060324,-21802.09270740661,-37698.16162564297,0.152,0.99,0.214,192.0,0.0,0.0,0.0,0.0,0.0,0.0,0.0,0.0,0.0,1696033279.217727,0.0,2023-09-29 19:21:19.217
28.0,-42782.69175084731,21524.238172082685,-41395.65424867324,-25197.345041912205,-11298.00215935733,-14016.86835490088,-187500.02235174447,-4629.560366816565,-8181.878409609606,26205.29695812428,-26159.341771524167,-21535.861079199443,80.28746608346297,-5961.590225886134,-21819.83999250412,-37749.81650707919,0.152,0.99,0.214,192.0,0.0,0.0,0.0,0.0,0.0,0.0,0.0,0.0,0.0,1696033279.217731,0.0,2023-09-29 19:21:19.217
30.0,-42788.01146602768,21956.74442729288,-41388.59109742536,-25073.315211929705,-11276.56683642469,-13996.751784891105,-187500.02235174447,-4599.698436224275,-8111.962152953405,26308.047927385323,-26059.63063950904,-21526.629808739403,87.82000396490145,-5906.917858948453,-21806.22778013084,-37690.74084648381,0.152,0.99,0.214,192.0,0.0,0.0,0.0,0.0,0.0,0.0,0.0,0.0,0.0,1696033279.277899,0.0,2023-09-29 19:21:19.277
32.0,-42793.688809119325,21551.32848636252,-41401.175129553696,-25206.41985016106,-11296.99633085684,-14021.137538091843,-187500.02235174447,-4632.086113940014,-8168.623825147609,26231.87318228164,-26131.93853282196,-21535.8834309439,72.68787296865857,-5968.765135856287,-21822.25398090529,-37737.99243426233,0.154,0.994,0.212,192.0,2.0,104.0,15.5,8.0,3.0,80.0,0.0,0.0,0.0,1696033279.27791,0.0,2023-09-29 19:21:19.277
34.0,-42796.05809403159,21915.10312737264,-41382.0643880444,-25073.024639251787,-11264.6086531411,-13997.511744202584,-187500.02235174447,-4602.313590325545,-8122.735693780863,26291.39587776612,-26092.57711083616,-21520.728948203203,81.13683237276464,-5917.579641053634,-21800.393974828003,-37693.17718662944,0.154,0.994,0.212,192.0,0.0,0.0,0.0,0.0,0.0,0.0,0.0,0.0,0.0,1696033279.277914,0.0,2023-09-29 19:21:19.277
36.0,-42789.03964627262,21588.47708564724,-41411.54633898096,-25211.56075138578,-11308.775700184788,-14042.706971491216,-187500.02235174447,-4662.216265465769,-8163.7734966008065,26246.13359524412,-26105.518770875788,-21532.41891055333,78.58873350485963,-5951.107257736595,-21818.096556436605,-37726.83891377913,0.154,0.994,0.212,192.0,0.0,0.0,0.0,0.0,0.0,0.0,0.0,0.0,0.0,1696033279.277917,0.0,2023-09-29 19:21:19.277
38.0,-42794.38171319744,21901.37915627708,-41380.27624848798,-25078.903148043533,-11264.340432207637,-14017.829479912458,-187500.02235174447,-4621.491387068199,-8136.884348021073,26248.726397600934,-26121.29910246123,-21530.45195704126,90.94924818864445,-5941.317193665171,-21809.78170749923,-37715.50657934029,0.154,0.994,0.212,192.0,0.0,0.0,0.0,0.0,0.0,0.0,0.0,0.0,0.0,1696033279.277921,0.0,2023-09-29 19:21:19.277
40.0,-42780.45657640178,21645.89871715292,-41413.49094074857,-25213.058318264284,-11307.613409473111,-14053.413457085308,-187500.02235174447,-4667.468925412765,-8145.08743823617,26266.607793165185,-26074.22632863836,-21537.805680967056,85.27190509699645,-5954.482371149346,-21823.46097510588,-37738.79709706272,0.154,0.994,0.212,192.0,0.0,0.0,0.0,0.0,0.0,0.0,0.0,0.0,0.0,1696033279.277924,0.0,2023-09-29 19:21:19.277
42.0,-42782.08825374702,21829.853574020097,-41373.19074549565,-25079.48429339937,-11257.478446659858,-14005.491316973128,-187500.02235174447,-4604.10172988197,-8133.106903208126,26250.782758090827,-26151.809233642725,-21520.058395869542,100.06875992640973,-5931.996516227307,-21808.194733642904,-37733.25386443781,0.154,0.994,0.214,192.0,2.0,104.0,15.5,8.0,3.0,88.0,0.0,0.0,0.0,1696033279.277928,0.0,2023-09-29 19:21:19.277
44.0,-42770.688864074815,21677.414676834906,-41407.27715578999,-25192.807637787777,-11310.295618807748,-14044.450407558728,-187500.02235174447,-4644.3795733904335,-8130.3129351512125,26286.21027305249,-26051.963991160872,-21523.32175056002,99.53231805948236,-5923.122873678551,-21817.627169803047,-37724.916663755976,0.154,0.994,0.214,192.0,0.0,0.0,0.0,0.0,0.0,0.0,0.0,0.0,0.0,1696033279.277931,0.0,2023-09-29 19:21:19.277
46.0,-42782.31177119157,21788.748715966787,-41363.93712329115,-25078.43376140997,-11259.37834493856,-13995.097755801413,-187500.02235174447,-4580.453584248256,-8144.506292880332,26240.702121341485,-26164.169748326512,-21522.6288464819,118.0395624684766,-5921.714713777866,-21810.474611577345,-37734.66202433849,0.154,0.994,0.214,192.0,0.0,0.0,0.0,0.0,0.0,0.0,0.0,0.0,0.0,1696033279.33823,0.0,2023-09-29 19:21:19.338
48.0,-42773.57223910955,21739.217250253827,-41410.56286222492,-25180.31301263726,-11306.04878736124,-14022.903325903811,-187500.02235174447,-4619.502081811676,-8125.060275204215,26315.69222398904,-26010.21093251836,-21527.32271281752,130.6682980857251,-5881.503925502769,-21809.491134821317,-37705.56005305768,0.154,0.994,0.214,192.0,0.0,0.0,0.0,0.0,0.0,0.0,0.0,0.0,0.0,1696033279.338238,0.0,2023-09-29 19:21:19.338
50.0,-42795.74516960921,21752.11420680454,-41389.75338813703,-25099.980843064888,-11264.005156040806,-13990.180372021245,-187500.02235174447,-4570.797630643562,-8168.579121658698,26219.80324027577,-26177.938422910986,-21526.518050017126,137.75380107805742,-5891.875134930031,-21811.79336450021,-37737.14306797303,0.154,0.994,0.214,192.0,0.0,0.0,0.0,0.0,0.0,0.0,0.0,0.0,0.0,1696033279.338241,0.0,2023-09-29 19:21:19.338
52.0,-42767.13493670642,21811.301626122196,-41434.38982181428,-25183.10698069417,-11298.85152564663,-14012.375654265365,-187500.02235174447,-4604.548764771076,-8121.841624002651,26326.48811656095,-25996.598720145077,-21539.97380017922,152.08126927390924,-5853.676003655912,-21814.74379476831,-37707.68346878093,0.156,1.0,0.222,192.0,2.0,112.0,15.5,32.0,3.0,120.0,0.0,0.0,0.0,1696033279.338245,0.0,2023-09-29 19:21:19.338
54.0,-42807.07750404805,21676.25238612323,-41407.85830114583,-25136.99533188288,-11259.870083316577,-13976.881084070335,-187500.02235174447,-4559.375889226901,-8176.223418262413,26217.210437918955,-26212.404812861063,-21537.112776888946,152.19302799618578,-5871.713861431344,-21821.0022832158,-37763.27225724128,0.156,1.0,0.222,192.0,0.0,0.0,0.0,0.0,0.0,0.0,0.0,0.0,0.0,1696033279.338248,0.0,2023-09-29 19:21:19.338
56.0,-42804.08237029104,21855.446321421423,-41442.63761551829,-25187.93495749652,-11295.387005256058,-14006.608904195897,-187500.02235174447,-4595.00456988866,-8122.489824591855,26349.532765094373,-26002.231359747813,-21546.38875083789,161.13372577830862,-5823.05411375214,-21819.41530935947,-37716.84768400761,0.156,1.0,0.222,192.0,0.0,0.0,0.0,0.0,0.0,0.0,0.0,0.0,0.0,1696033279.338251,0.0,2023-09-29 19:21:19.338
58.0,-42804.77527436916,21619.411899973384,-41411.47928374759,-25173.36162011166,-11256.51732164828,-13980.502066672096,-187500.02235174447,-4567.087241063981,-8185.074709066715,26197.272681864823,-26217.52336234133,-21546.858137471456,167.4592694591605,-5876.363024278048,-21824.93619023993,-37778.7173126599,0.156,1.0,0.222,192.0,0.0,0.0,0.0,0.0,0.0,0.0,0.0,0.0,0.0,1696033279.338255,0.0,2023-09-29 19:21:19.338
60.0,-42793.04060853012,21881.441400222942,-41436.62499625981,-25176.02147770184,-11280.187819026449,-13995.075404056955,-187500.02235174447,-4588.947247141272,-8103.602600527121,26345.084767947767,-25997.090458523093,-21540.040855412582,172.24254277259624,-5812.660552580423,-21812.955655211885,-37717.29471889672,0.156,1.0,0.222,192.0,0.0,0.0,0.0,0.0,0.0,0.0,0.0,0.0,0.0,1696033279.398473,0.0,2023-09-29 19:21:19.398
62.0,-42785.23984971522,21573.27789941763,-41416.46372276112,-25187.845550518698,-11259.17717923846,-13971.494313656607,-187500.02235174447,-4567.310758508535,-8186.61697943413,26208.69442328148,-26216.94221698549,-21546.768730493637,160.99961531157678,-5867.645843940479,-21825.964370484875,-37774.09050155765,0.158,0.998,0.22,192.0,2.0,120.0,15.5,24.0,3.0,112.0,0.0,0.0,0.0,1696033279.398484,0.0,2023-09-29 19:21:19.398
64.0,-42787.47502416075,21917.4724122849,-41426.410249043736,-25149.48995703339,-11275.672766646478,-13977.9986712931,-187500.02235174447,-4578.173706313813,-8096.69591149043,26381.65222187665,-25996.263443978245,-21523.187640093285,163.54771417948177,-5795.807337261122,-21805.60193128609,-37692.75250348479,0.158,0.998,0.22,192.0,0.0,0.0,0.0,0.0,0.0,0.0,0.0,0.0,0.0,1696033279.398487,0.0,2023-09-29 19:21:19.398
66.0,-42781.19418396881,21543.39361708088,-41402.18095805418,-25181.27413764884,-11260.18300773895,-13963.62649960834,-187500.02235174447,-4569.814153887529,-8171.037813548782,26207.509780825352,-26195.57394928622,-21521.19833483676,162.25131300107398,-5846.389334963481,-21813.022710445253,-37754.15274550352,0.158,0.998,0.22,192.0,0.0,0.0,0.0,0.0,0.0,0.0,0.0,0.0,0.0,1696033279.39849,0.0,2023-09-29 19:21:19.398
68.0,-42775.74035832171,21927.01660716732,-41407.85830114583,-25118.577494451703,-11266.285033975248,-13965.928729287236,-187500.02235174447,-4574.977406856705,-8090.213905598392,26366.251869946944,-25990.80961833115,-21500.701785171248,171.1696590387415,-5769.6334445039565,-21794.58252126962,-37684.66117199197,0.158,0.998,0.22,192.0,0.0,0.0,0.0,0.0,0.0,0.0,0.0,0.0,0.0,1696033279.398494,0.0,2023-09-29 19:21:19.398
70.0,-42772.40994839787,21523.567619749025,-41403.65617318823,-25195.35573665568,-11265.346260708126,-13970.332022944933,-187500.02235174447,-4585.795651173074,-8174.010595561337,26239.04809225179,-26169.04242861777,-21512.63761671038,156.52926642051537,-5849.049192553663,-21811.301626122196,-37747.15664948901,0.158,0.998,0.22,192.0,0.0,0.0,0.0,0.0,0.0,0.0,0.0,0.0,0.0,1696033279.398497,0.0,2023-09-29 19:21:19.398
72.0,-42788.70437010579,21962.310011662248,-41414.2732518045,-25112.319006004214,-11261.144132750527,-13966.264005454064,-187500.02235174447,-4577.950188869261,-8097.142946379537,26365.201337957544,-26004.62299640453,-21515.900971400853,163.6594729017583,-5787.738357512755,-21795.007204414276,-37679.29675332269,0.154,0.994,0.222,192.0,2.0,104.0,15.5,8.0,3.0,120.0,0.0,0.0,0.0,1696033279.3985,0.0,2023-09-29 19:21:19.398
74.0,-42789.82195732855,21525.9816081502,-41424.82327518741,-25230.492678939427,-11276.253912002316,-13981.843171339417,-187500.02235174447,-4598.312628068045,-8171.551903671254,26222.373690888133,-26164.70619019344,-21533.268276842628,146.15805699325287,-5863.331957260604,-21819.169440170463,-37750.75528034631,0.154,0.994,0.222,192.0,0.0,0.0,0.0,0.0,0.0,0.0,0.0,0.0,0.0,1696033279.398503,0.0,2023-09-29 19:21:19.398
76.0,-42805.87050984747,21959.337229649693,-41422.11871410832,-25118.331625262694,-11260.6076908836,-13966.62163336535,-187500.02235174447,-4570.395299243367,-8093.521963777776,26325.05760491581,-26049.125319615046,-21530.988398908183,151.79069659599023,-5811.632372335479,-21800.952768439387,-37692.28311685123,0.154,0.994,0.222,192.0,0.0,0.0,0.0,0.0,0.0,0.0,0.0,0.0,0.0,1696033279.457998,0.0,2023-09-29 19:21:19.457
78.0,-42797.466253932274,21553.854233485967,-41440.80477247296,-25247.27883902536,-11287.586246441157,-13993.935465089737,-187500.02235174447,-4599.877250179917,-8181.900761354061,26225.838211278704,-26152.1221580651,-21554.815358497544,130.78005680800163,-5859.956843847853,-21827.998379230303,-37752.90104781402,0.154,0.994,0.222,192.0,0.0,0.0,0.0,0.0,0.0,0.0,0.0,0.0,0.0,1696033279.458009,0.0,2023-09-29 19:21:19.458
80.0,-42816.062905319086,21971.96596526694,-41428.220740344615,-25117.0799275732,-11263.781638596254,-13974.489447413618,-187500.02235174447,-4572.898694622361,-8122.802749014229,26310.998357653425,-26078.58491880714,-21548.623925283424,141.91122554674453,-5822.428264907392,-21816.710748280377,-37707.9516897144,0.154,0.994,0.222,192.0,0.0,0.0,0.0,0.0,0.0,0.0,0.0,0.0,0.0,1696033279.458012,0.0,2023-09-29 19:21:19.458
82.0,-42790.93954455132,21590.622853114943,-41440.24597886157,-25243.27787676786,-11292.682444176966,-13998.897552358814,-187500.02235174447,-4613.4447590642885,-8174.502333939355,26245.06071151027,-26133.30198923373,-21555.35180036447,129.1483794627642,-5863.801343894165,-21829.94298099792,-37752.8116408362,0.156,0.994,0.222,192.0,2.0,112.0,15.5,8.0,3.0,120.0,0.0,0.0,0.0,1696033279.458016,0.0,2023-09-29 19:21:19.458
84.0,-42796.5498324096,21917.874743685097,-41405.064333088914,-25099.53380817578,-11247.04018199923,-13959.781999562028,-187500.02235174447,-4566.170819541314,-8131.721095051897,26282.030496839347,-26120.7179571054,-21537.24688735567,145.97924303761042,-5823.545852130157,-21809.245265632304,-37714.52310258426,0.156,0.994,0.222,192.0,0.0,0.0,0.0,0.0,0.0,0.0,0.0,0.0,0.0,1696033279.458019,0.0,2023-09-29 19:21:19.458
86.0,-42786.960934038274,21616.215600516272,-41434.43452530319,-25232.057301051296,-11289.843772631142,-13997.757613391592,-187500.02235174447,-4614.919974198338,-8163.169999500514,26265.91488908707,-26097.852122527616,-21543.952410692265,137.3738214223172,-5849.138599531484,-21819.772937270754,-37732.62801559306,0.156,0.994,0.222,192.0,0.0,0.0,0.0,0.0,0.0,0.0,0.0,0.0,0.0,1696033279.458023,0.0,2023-09-29 19:21:19.458
88.0,-42803.99296331322,21844.046931749217,-41398.35880975232,-25104.74176463387,-11240.848748785107,-13963.447685652696,-187500.02235174447,-4563.242741017669,-8138.918356766505,26266.38427572063,-26145.1707655395,-21535.302285588063,146.40392618226127,-5837.672154625911,-21809.200562143396,-37721.83212302114,0.156,0.994,0.222,192.0,0.0,0.0,0.0,0.0,0.0,0.0,0.0,0.0,0.0,1696033279.458026,0.0,2023-09-29 19:21:19.458
90.0,-42792.05713177408,21623.166993041872,-41431.61820550182,-25232.28081849585,-11285.060499317706,-14013.135613576844,-187500.02235174447,-4621.737256257207,-8154.408115674033,26287.461970741984,-26071.76763674827,-21547.21576538274,136.81502781093454,-5853.58659667809,-21822.83512626113,-37735.93607377244,0.156,0.994,0.222,192.0,0.0,0.0,0.0,0.0,0.0,0.0,0.0,0.0,0.0,1696033279.517785,0.0,2023-09-29 19:21:19.517
92.0,-42794.47112017526,21780.16564609595,-41386.60179216883,-25101.321947732205,-11239.17236795096,-13970.309671200475,-187500.02235174447,-4563.578017184498,-8146.85322604814,26259.701104128493,-26166.98606812788,-21532.9330006758,146.42627792671658,-5859.241588025283,-21805.60193128609,-37741.211085463896,0.156,0.996,0.216,192.0,2.0,112.0,15.5,16.0,3.0,96.0,0.0,0.0,0.0,1696033279.517795,0.0,2023-09-29 19:21:19.517
94.0,-42758.730680791225,21692.546807831142,-41430.90294967925,-25209.03500426233,-11300.393796014048,-14014.879049644358,-187500.02235174447,-4621.647849279386,-8135.967926498405,26306.282139573355,-26032.741490929307,-21544.46650081474,127.44964688416088,-5849.6973931428665,-21815.97314071335,-37724.000242233305,0.156,0.996,0.216,192.0,0.0,0.0,0.0,0.0,0.0,0.0,0.0,0.0,0.0,1696033279.517798,0.0,2023-09-29 19:21:19.517
96.0,-42794.02408528615,21752.717703904837,-41390.08866430386,-25102.551293677247,-11254.997403025318,-13974.10946775788,-187500.02235174447,-4572.80928764454,-8144.081609735681,26243.85371730968,-26178.0278298888,-21528.082672129,127.15907420624188,-5864.002509594263,-21813.961483712374,-37740.361719174594,0.156,0.996,0.216,192.0,0.0,0.0,0.0,0.0,0.0,0.0,0.0,0.0,0.0,1696033279.517802,0.0,2023-09-29 19:21:19.517
98.0,-42789.19610848381,21756.33868650659,-41423.95155715365,-25194.43931513301,-11299.85735414712,-14013.06855834348,-187500.02235174447,-4622.005477190671,-8110.151661652525,26321.436622314053,-26010.47915345182,-21532.664779742336,119.47007411361623,-5842.164855261428,-21813.55915231218,-37706.18590190243,0.156,0.996,0.216,192.0,0.0,0.0,0.0,0.0,0.0,0.0,0.0,0.0,0.0,1696033279.517805,0.0,2023-09-29 19:21:19.517
100.0,-42796.3039632206,21679.001650691232,-41387.5182136915,-25126.288846288782,-11259.13247574955,-13978.155133504288,-187500.02235174447,-4580.520639481621,-8164.42169719001,26201.85478947816,-26204.782868001806,-21536.64339025538,130.0648009854318,-5883.336768548104,-21815.50375407979,-37749.07889951216,0.156,0.996,0.216,192.0,0.0,0.0,0.0,0.0,0.0,0.0,0.0,0.0,0.0,1696033279.517808,0.0,2023-09-29 19:21:19.517
102.0,-42783.40700666989,21809.334672610126,-41432.55697876895,-25195.154570955583,-11308.038092617762,-14019.259991557596,-187500.02235174447,-4630.946174972793,-8123.2721356477905,26305.96921515098,-26004.354775471067,-21552.982515452208,118.3748386353062,-5852.334898988593,-21821.51637333827,-37703.05665767869,0.152,1.006,0.21,192.0,2.0,96.0,15.5,56.0,3.0,72.0,0.0,0.0,0.0,1696033279.517812,0.0,2023-09-29 19:21:19.517
104.0,-42802.04836154561,21635.2592867922,-41404.70670517763,-25160.8893467056,-11277.170333524982,-13994.404851723297,-187500.02235174447,-4597.95500015676,-8186.751089900862,26199.507856310356,-26231.627313092627,-21552.9378119633,118.15132119075314,-5907.901335704486,-21833.340446155125,-37765.395672964536,0.152,1.006,0.21,192.0,0.0,0.0,0.0,0.0,0.0,0.0,0.0,0.0,0.0,1696033279.517815,0.0,2023-09-29 19:21:19.517
106.0,-42799.54496616661,21829.630056575545,-41431.528798524,-25184.6939545505,-11302.7183774374,-14016.175450822766,-187500.02235174447,-4624.777093503129,-8112.029208186771,26334.84766898724,-26014.748336642784,-21549.674457272824,121.74995204805757,-5859.934492103397,-21829.205373430894,-37713.31610838367,0.152,1.006,0.21,192.0,0.0,0.0,0.0,0.0,0.0,0.0,0.0,0.0,0.0,1696033279.577974,0.0,2023-09-29 19:21:19.577
108.0,-42804.61881215797,21565.588899325,-41406.137216822775,-25166.633745030613,-11265.413315941492,-13987.855790597892,-187500.02235174447,-4587.807308174051,-8177.5645229297315,26177.357277555144,-26236.23177245042,-21551.97668695172,124.87919627180057,-5897.396015810492,-21824.869135006564,-37765.46272819791,0.152,1.006,0.21,192.0,0.0,0.0,0.0,0.0,0.0,0.0,0.0,0.0,0.0,1696033279.577982,0.0,2023-09-29 19:21:19.577
110.0,-42807.99392557072,21859.715504612388,-41442.01176667354,-25163.236279873407,-11290.670787175988,-14003.032625083046,-187500.02235174447,-4609.086168895504,-8117.214812900403,26320.29668334683,-26015.30713025417,-21555.485910831205,126.2873561724849,-5836.666326125423,-21813.26857963426,-37699.90506171049,0.152,1.006,0.21,192.0,0.0,0.0,0.0,0.0,0.0,0.0,0.0,0.0,0.0,1696033279.577985,0.0,2023-09-29 19:21:19.577
112.0,-42790.22428872875,21514.00107312216,-41422.63280423079,-25187.28675690732,-11270.218940999384,-13981.016156794569,-187500.02235174447,-4582.800517416063,-8194.551848715764,26175.502082765357,-26235.47181313894,-21555.70942827576,124.63332708279218,-5894.669102986944,-21823.48332685033,-37759.80773685071,0.148,0.998,0.208,192.0,2.0,80.0,15.5,24.0,3.0,64.0,0.0,0.0,0.0,1696033279.577988,0.0,2023-09-29 19:21:19.577
114.0,-42791.78891084062,21895.634757952063,-41440.80477247296,-25144.8854976756,-11288.592074941644,-13989.509819687584,-187500.02235174447,-4592.121194853926,-8105.189574383447,26349.376302883185,-26021.81148789066,-21547.17106189383,134.84807429886752,-5829.670230110912,-21810.519315066256,-37683.811805702666,0.148,0.998,0.208,192.0,0.0,0.0,0.0,0.0,0.0,0.0,0.0,0.0,0.0,1696033279.577991,0.0,2023-09-29 19:21:19.577
116.0,-42805.19995751381,21507.20614280774,-41427.08080137739,-25206.12927748314,-11281.75244113832,-13988.81691560947,-187500.02235174447,-4591.361235542445,-8186.0805375672035,26185.538016025785,-26215.377594873626,-21557.676381787824,123.69455381566928,-5904.034483913718,-21829.808870531186,-37752.47636466937,0.148,0.998,0.208,192.0,0.0,0.0,0.0,0.0,0.0,0.0,0.0,0.0,0.0,1696033279.577994,0.0,2023-09-29 19:21:19.577
118.0,-42813.02306807316,21924.35674957713,-41432.35581306885,-25135.94479989348,-11280.23252251536,-13989.286302243032,-187500.02235174447,-4589.930723897305,-8107.111824406604,26328.812697984304,-26031.10981358407,-21545.89701245988,133.61872835382562,-5840.846102338565,-21809.826410988146,-37685.622297003545,0.148,0.998,0.208,192.0,0.0,0.0,0.0,0.0,0.0,0.0,0.0,0.0,0.0,1696033279.577997,0.0,2023-09-29 19:21:19.577
120.0,-42804.37294296896,21509.463668997727,-41441.83295271789,-25232.839612107236,-11294.7164529224,-14005.513668717584,-187500.02235174447,-4605.644000249386,-8192.09315682568,26173.780998442293,-26202.011251689342,-21566.438265614303,113.47980659959396,-5905.710864747866,-21833.69807406641,-37763.38401596356,0.148,0.998,0.208,192.0,0.0,0.0,0.0,0.0,0.0,0.0,0.0,0.0,0.0,1696033279.638142,0.0,2023-09-29 19:21:19.638
122.0,-42808.44096045983,21957.325572648715,-41433.13812412478,-25123.6289886986,-11275.42689745747,-13985.24063649662,-187500.02235174447,-4584.342787783478,-8118.935897223461,26310.75248846441,-26053.796834206205,-21551.909631718358,125.99678349456592,-5844.645898895968,-21818.990626214814,-37705.58240480213,0.148,0.998,0.208,192.0,2.0,80.0,15.5,24.0,3.0,64.0,0.0,0.0,0.0,1696033279.638178,0.0,2023-09-29 19:21:19.638
124.0,-42793.53234690813,21525.53457326109,-41437.25084510456,-25239.723949399468,-11295.074080833683,-14003.479659972152,-187500.02235174447,-4611.142529385392,-8188.405118990555,26206.61571104714,-26175.59148974317,-21560.537405078103,123.381629393295,-5903.498042046791,-21834.905068267,-37763.62988515256,0.148,0.998,0.208,192.0,0.0,0.0,0.0,0.0,0.0,0.0,0.0,0.0,0.0,1696033279.638191,0.0,2023-09-29 19:21:19.638
126.0,-42795.7004661203,21938.30423811725,-41410.02642035799,-25108.25098851335,-11265.256853730303,-13972.611900879372,-187500.02235174447,-4578.039595847082,-8121.729865280375,26301.744735448927,-26076.372096106064,-21546.45580607126,131.13768471928654,-5846.63520415249,-21808.7982307432,-37707.59406180311,0.148,0.998,0.208,192.0,0.0,0.0,0.0,0.0,0.0,0.0,0.0,0.0,0.0,1696033279.638195,0.0,2023-09-29 19:21:19.638
128.0,-42784.14461423691,21548.46746307224,-41427.170208355215,-25230.224458005963,-11292.347168010136,-13999.992787837124,-187500.02235174447,-4608.907354939861,-8161.650080877553,26219.57972283122,-26143.13675679407,-21542.432492069303,122.21933868161902,-5888.88000117302,-21820.108213437583,-37745.52497214377,0.148,0.998,0.208,192.0,0.0,0.0,0.0,0.0,0.0,0.0,0.0,0.0,0.0,1696033279.638198,0.0,2023-09-29 19:21:19.638
130.0,-42795.83457658703,21904.39664177855,-41397.48709171857,-25093.54354066176,-11255.511493147793,-13964.0958862419,-187500.02235174447,-4570.440002732277,-8112.856222731617,26295.218026067974,-26092.57711083616,-21523.902895915857,137.12795223330883,-5840.913157571931,-21797.778820726733,-37700.48620706632,0.148,0.998,0.208,192.0,0.0,0.0,0.0,0.0,0.0,0.0,0.0,0.0,0.0,1696033279.638201,0.0,2023-09-29 19:21:19.638
132.0,-42775.20391645478,21563.689001046303,-41427.50548452205,-25225.7541091149,-11304.886496649564,-13999.456345970197,-187500.02235174447,-4610.829604963017,-8154.095191251659,26253.442615681008,-26108.268035443787,-21535.6822652438,114.284469399985,-5874.910160888453,-21819.12473668155,-37732.20333244841,0.148,1.002,0.212,192.0,2.0,80.0,15.5,40.0,3.0,80.0,0.0,0.0,0.0,1696033279.638205,0.0,2023-09-29 19:21:19.638
134.0,-42802.38363771244,21888.504551470825,-41399.02936208598,-25090.34724120465,-11263.647528129522,-13967.783924077026,-187500.02235174447,-4558.28065374859,-8130.737618295863,26263.545604174808,-26113.92302679098,-21532.843593697977,127.8519782843564,-5848.758619875744,-21797.97998642683,-37702.45316057839,0.148,1.002,0.212,192.0,0.0,0.0,0.0,0.0,0.0,0.0,0.0,0.0,0.0,1696033279.638208,0.0,2023-09-29 19:21:19.638
136.0,-42783.92109679236,21603.251588732197,-41432.10994387984,-25232.03494930684,-11304.886496649564,-14003.546715205515,-187500.02235174447,-4594.490479766188,-8160.174865743503,26253.95670580348,-26083.658764798496,-21549.272125872627,114.03860021097664,-5882.085070858607,-21812.665082533968,-37727.12948645705,0.148,1.002,0.212,192.0,0.0,0.0,0.0,0.0,0.0,0.0,0.0,0.0,0.0,1696033279.698584,0.0,2023-09-29 19:21:19.698
138.0,-42804.3058877356,21839.151899713503,-41409.10999883533,-25108.22863676889,-11261.27824321726,-13975.227054980644,-187500.02235174447,-4552.893883334861,-8142.651098090541,26262.472720440957,-26156.81602440072,-21551.730817762716,116.43023686769448,-5890.601085496079,-21802.383280084527,-37720.781591031744,0.148,1.002,0.212,192.0,0.0,0.0,0.0,0.0,0.0,0.0,0.0,0.0,0.0,1696033279.698593,0.0,2023-09-29 19:21:19.698
140.0,-42802.76361736818,21685.640118794458,-41447.9349789542,-25235.544173186325,-11309.826232174186,-14020.15406133581,-187500.02235174447,-4617.982163188715,-8135.878519520584,26265.37844722014,-26061.597593021103,-21567.533501092614,101.99100994956612,-5895.496117531791,-21820.108213437583,-37726.14600970102,0.148,1.002,0.212,192.0,0.0,0.0,0.0,0.0,0.0,0.0,0.0,0.0,0.0,1696033279.698596,0.0,2023-09-29 19:21:19.698
142.0,-42808.083332548544,21803.03148067373,-41404.729056922086,-25117.415203740027,-11260.071249016672,-13978.132781759834,-187500.02235174447,-4575.312683023534,-8148.909586538028,26199.64196677708,-26186.32032708172,-21551.373189851427,107.44483559666104,-5905.040312414207,-21813.156820911983,-37741.09932674162,0.148,1.002,0.216,192.0,2.0,80.0,15.5,40.0,3.0,96.0,0.0,0.0,0.0,1696033279.698599,0.0,2023-09-29 19:21:19.698
144.0,-42785.17279448185,21724.085119257583,-41439.84364746138,-25220.635559634637,-11306.272304805792,-14017.896535145825,-187500.02235174447,-4627.079323182025,-8132.615164830109,26280.220005538467,-26045.370226546554,-21551.194375895782,109.79176876446827,-5879.715785946344,-21814.632036046038,-37714.88073049554,0.148,1.002,0.216,192.0,0.0,0.0,0.0,0.0,0.0,0.0,0.0,0.0,0.0,1696033279.698602,0.0,2023-09-29 19:21:19.698
146.0,-42806.16108252539,21730.790642594176,-41399.990487097566,-25125.037148599287,-11266.128571764062,-13982.469020184162,-187500.02235174447,-4580.744156926174,-8156.71034535293,26195.52924579731,-26213.00830996136,-21553.74247476369,117.21254792363024,-5909.711827005366,-21812.55332381169,-37746.53080064426,0.148,1.002,0.216,192.0,0.0,0.0,0.0,0.0,0.0,0.0,0.0,0.0,0.0,1696033279.698606,0.0,2023-09-29 19:21:19.698
148.0,-42776.43326239983,21781.4396955299,-41440.15657188375,-25209.37028042916,-11310.76500544131,-14022.500994503618,-187500.02235174447,-4628.599241804986,-8117.617144300598,26322.30834034781,-26032.182697317923,-21563.17491092383,104.31559137291806,-5887.874172672531,-21816.688396535923,-37711.84089324962,0.148,1.002,0.216,192.0,0.0,0.0,0.0,0.0,0.0,0.0,0.0,0.0,0.0,1696033279.698609,0.0,2023-09-29 19:21:19.698
150.0,-42820.64501293242,21660.516758026693,-41401.53275746498,-25145.332532564706,-11262.03820252874,-13989.174543520754,-187500.02235174447,-4588.47786050771,-8160.823066332707,26173.445722275465,-26236.343531172697,-21561.856158000966,106.37195186280633,-5927.302649891692,-21817.98479771433,-37755.00211179282,0.148,1.002,0.216,192.0,0.0,0.0,0.0,0.0,0.0,0.0,0.0,0.0,0.0,1696033279.758926,0.0,2023-09-29 19:21:19.758
152.0,-42800.70725687829,21811.972178455853,-41428.04192638897,-25182.12350393814,-11294.828211644675,-14012.755633921104,-187500.02235174447,-4622.832491735518,-8126.244917660346,26298.28021505836,-26022.43733673541,-21551.753169507167,113.43510311068334,-5872.809096909654,-21810.27344587725,-37699.86035822157,0.152,1.004,0.212,192.0,2.0,96.0,15.5,48.0,3.0,80.0,0.0,0.0,0.0,1696033279.758943,0.0,2023-09-29 19:21:19.758
154.0,-42801.24369874522,21590.75696358168,-41396.548318451445,-25151.94864892348,-11261.635871128545,-13987.207590008687,-187500.02235174447,-4598.089110623492,-8179.777345630807,26183.436952046988,-26239.13749922961,-21544.62296302593,111.1105216873314,-5929.493120848313,-21811.726309266844,-37756.27616122677,0.152,1.004,0.212,192.0,0.0,0.0,0.0,0.0,0.0,0.0,0.0,0.0,0.0,1696033279.758947,0.0,2023-09-29 19:21:19.758
156.0,-42776.61207635547,21857.27916446676,-41424.37624029831,-25158.229489115416,-11289.307330764215,-14006.139517562331,-187500.02235174447,-4618.496253311188,-8101.4121295705,26336.032311443367,-26009.406269717965,-21549.87562297292,106.75193151854651,-5868.741079418788,-21800.438678316918,-37688.43861680492,0.152,1.004,0.212,192.0,0.0,0.0,0.0,0.0,0.0,0.0,0.0,0.0,0.0,1696033279.758951,0.0,2023-09-29 19:21:19.758
158.0,-42782.82586131404,21565.03010571362,-41398.69408591915,-25161.738712994906,-11271.85061834462,-13989.219247009663,-187500.02235174447,-4601.665389736341,-8165.025194290304,26173.93746065348,-26229.146269458088,-21556.536442820605,95.12902440178686,-5933.605841828089,-21812.486268578323,-37750.24119022384,0.152,1.004,0.212,192.0,0.0,0.0,0.0,0.0,0.0,0.0,0.0,0.0,0.0,1696033279.758954,0.0,2023-09-29 19:21:19.758
160.0,-42793.84527133051,21907.548237746745,-41412.06042910343,-25135.36365453764,-11288.547371452734,-14001.847982626914,-187500.02235174447,-4619.323267856034,-8091.867934688084,26314.75345072192,-26003.99714755978,-21542.45484381376,106.03667569597673,-5862.393183993481,-21794.761335225267,-37678.84971843359,0.152,1.004,0.212,192.0,0.0,0.0,0.0,0.0,0.0,0.0,0.0,0.0,0.0,1696033279.758957,0.0,2023-09-29 19:21:19.758
162.0,-42791.92302130735,21543.907707203354,-41394.35784749482,-25177.45198934698,-11279.874894604076,-13994.851886612403,-187500.02235174447,-4613.109482897458,-8176.3798804736,26174.38449554259,-26211.39898436057,-21546.70167526027,101.9016029717449,-5938.545577352712,-21810.34050111061,-37751.91757105799,0.148,0.994,0.22,192.0,2.0,80.0,15.5,8.0,3.0,112.0,0.0,0.0,0.0,1696033279.758961,0.0,2023-09-29 19:21:19.758
164.0,-42785.1504427374,21941.858165485643,-41406.04780984495,-25118.845715385167,-11285.485182462357,-13998.495220958615,-187500.02235174447,-4613.53416604211,-8090.437423042945,26323.895314204136,-26007.975758072826,-21542.36543683594,108.92005073071132,-5867.981120107308,-21796.616530015057,-37679.11793936705,0.148,0.994,0.22,192.0,0.0,0.0,0.0,0.0,0.0,0.0,0.0,0.0,0.0,1696033279.758964,0.0,2023-09-29 19:21:19.758
166.0,-42758.79773602459,21525.91455291683,-41397.39768474075,-25189.499579608397,-11278.690252147944,-13997.57879943595,-187500.02235174447,-4618.2056806332685,-8159.861941321128,26179.36893455612,-26203.888798223597,-21553.004867196665,92.3574080893288,-5941.451304131902,-21809.78170749923,-37749.19065823444,0.148,0.994,0.22,192.0,0.0,0.0,0.0,0.0,0.0,0.0,0.0,0.0,0.0,1696033279.817736,0.0,2023-09-29 19:21:19.817
168.0,-42806.58576567004,21937.700741016957,-41398.15764405223,-25107.96041583543,-11275.270435246282,-13997.087061057931,-187500.02235174447,-4614.5623462870535,-8090.683292231953,26301.49886625992,-26041.615133478062,-21545.89701245988,97.07362616939858,-5887.270675572237,-21792.88378869102,-37685.42113130345,0.148,0.994,0.22,192.0,0.0,0.0,0.0,0.0,0.0,0.0,0.0,0.0,0.0,1696033279.817744,0.0,2023-09-29 19:21:19.817
170.0,-42805.13290228044,21511.654139954346,-41407.47832149009,-25210.73373684093,-11291.587208698656,-14018.276514801564,-187500.02235174447,-4637.718753542752,-8189.276837024312,26174.74212345387,-26191.46122830644,-21555.12828291992,84.13196612977579,-5952.649528104011,-21818.87886749254,-37754.42096643698,0.148,0.994,0.22,192.0,0.0,0.0,0.0,0.0,0.0,0.0,0.0,0.0,0.0,1696033279.817747,0.0,2023-09-29 19:21:19.817
172.0,-42805.66934414737,21931.129328147093,-41395.20721378413,-25098.01388955282,-11270.80008635522,-14004.843116383923,-187500.02235174447,-4616.596355032487,-8112.632705287065,26274.565014191277,-26068.325468102157,-21548.82509098352,103.04154193896557,-5882.710919703355,-21799.522256794247,-37695.30060235269,0.152,0.992,0.214,192.0,2.0,96.0,15.5,0.0,3.0,88.0,0.0,0.0,0.0,1696033279.817751,0.0,2023-09-29 19:21:19.817
174.0,-42781.26123920218,21509.374262019905,-41408.75237092404,-25226.581123659747,-11293.598865699634,-14030.167642851788,-187500.02235174447,-4650.68276532683,-8170.479019937399,26188.26492884933,-26172.1269693526,-21563.241966157195,91.01630342201037,-5947.598033857112,-21818.23066690334,-37749.48123091236,0.152,0.992,0.214,192.0,0.0,0.0,0.0,0.0,0.0,0.0,0.0,0.0,0.0,1696033279.817754,0.0,2023-09-29 19:21:19.817
176.0,-42782.08825374702,21908.95639764743,-41393.35201899434,-25099.891436087066,-11265.033336285753,-14004.261971028089,-187500.02235174447,-4619.05504692257,-8101.836812715151,26271.793397878817,-26096.73453530485,-21553.49660557468,100.35933260432871,-5902.335751335115,-21801.064527161663,-37701.08970416662,0.152,0.992,0.214,192.0,0.0,0.0,0.0,0.0,0.0,0.0,0.0,0.0,0.0,1696033279.817758,0.0,2023-09-29 19:21:19.817
178.0,-42809.33503023804,21535.950486177266,-41418.45302801765,-25230.492678939427,-11302.159583826016,-14032.760445208603,-187500.02235174447,-4660.003442764693,-8149.669545849508,26200.781905744305,-26149.95403885293,-21558.726913777224,84.53429752997131,-5945.541673367224,-21820.71171053788,-37747.38016693356,0.152,0.992,0.214,192.0,0.0,0.0,0.0,0.0,0.0,0.0,0.0,0.0,0.0,1696033279.817761,0.0,2023-09-29 19:21:19.817
180.0,-42816.59934718601,21898.24991205334,-41399.49874871955,-25093.83411333968,-11269.146057265529,-13997.757613391592,-187500.02235174447,-4616.551651543576,-8123.294487392246,26249.553412145782,-26124.294236218244,-21547.841614227487,92.84914646734552,-5901.396978067992,-21808.88763772102,-37708.30931762568,0.152,0.992,0.214,192.0,0.0,0.0,0.0,0.0,0.0,0.0,0.0,0.0,0.0,1696033279.877957,0.0,2023-09-29 19:21:19.877
182.0,-42789.19610848381,21595.0484985171,-41419.43650477368,-25223.98832130293,-11308.6192379736,-14027.239564328143,-187500.02235174447,-4653.074401983547,-8156.442124419466,26236.991731761904,-26120.06975651619,-21566.17004468084,83.1931928626529,-5941.205434942894,-21825.740853040323,-37735.06435573869,0.154,0.996,0.22,192.0,2.0,104.0,15.5,16.0,3.0,112.0,0.0,0.0,0.0,1696033279.877968,0.0,2023-09-29 19:21:19.877
184.0,-42791.721855607255,21859.17906274546,-41375.82825134137,-25075.25981369732,-11260.630042628056,-13981.999633550602,-187500.02235174447,-4593.6634652213415,-8121.886327491561,26250.42513017954,-26152.14450980956,-21539.862041456945,103.71209427262475,-5908.840108971609,-21799.343442838603,-37707.83993099212,0.154,0.996,0.22,192.0,0.0,0.0,0.0,0.0,0.0,0.0,0.0,0.0,0.0,1696033279.877972,0.0,2023-09-29 19:21:19.877
186.0,-42753.23215165522,21638.52264148267,-41402.58328945438,-25192.405306387584,-11311.256743819324,-14017.896535145825,-187500.02235174447,-4646.525340858143,-8127.071932205193,26248.86050806767,-26083.815227009683,-21540.711407746247,89.33992258786233,-5915.277411374737,-21808.35119585409,-37709.829236248646,0.154,0.996,0.22,192.0,0.0,0.0,0.0,0.0,0.0,0.0,0.0,0.0,0.0,1696033279.877975,0.0,2023-09-29 19:21:19.877
188.0,-42792.3030009631,21803.63497777402,-41361.83605931235,-25069.9177467725,-11268.22963574286,-13984.234807996132,-187500.02235174447,-4606.001628160671,-8121.327533880179,26232.76725205985,-26164.25915530433,-21532.083634386498,95.2631348685187,-5914.3833415965255,-21795.36483232556,-37704.73303851283,0.154,0.996,0.22,192.0,0.0,0.0,0.0,0.0,0.0,0.0,0.0,0.0,0.0,1696033279.877978,0.0,2023-09-29 19:21:19.877
190.0,-42786.6480096159,21682.287357126163,-41406.09251333386,-25196.40626864508,-11319.437482289968,-14034.593288253938,-187500.02235174447,-4658.5282276306425,-8122.646286803042,26273.760351390883,-26042.129223600536,-21543.728893247717,82.2767713399853,-5918.876042232042,-21807.30066386469,-37701.15675939999,0.154,0.996,0.22,192.0,0.0,0.0,0.0,0.0,0.0,0.0,0.0,0.0,0.0,1696033279.877981,0.0,2023-09-29 19:21:19.877
192.0,-42801.578974912045,21739.597229909567,-41372.09551001734,-25102.1266105326,-11265.905054319508,-13999.81397388148,-187500.02235174447,-4609.488500295699,-8149.870711549606,26196.222149875422,-26200.67014702203,-21553.965992208243,80.39922480573951,-5950.280243191748,-21803.567922540657,-37731.51042837029,0.154,0.998,0.218,192.0,2.0,104.0,15.5,24.0,3.0,104.0,0.0,0.0,0.0,1696033279.877984,0.0,2023-09-29 19:21:19.877
194.0,-42784.85987005948,21749.20848002535,-41416.754295439045,-25191.824161031745,-11310.988522885862,-14038.035456900056,-187500.02235174447,-4649.520474615154,-8130.715266551408,26258.359999461176,-26043.67149396795,-21566.81824527005,71.59263749034852,-5931.102446449095,-21805.154896396984,-37703.3472303566,0.154,0.998,0.218,192.0,0.0,0.0,0.0,0.0,0.0,0.0,0.0,0.0,0.0,1696033279.877987,0.0,2023-09-29 19:21:19.877
196.0,-42802.89772783491,21707.50012487175,-41379.24806824304,-25113.01191008233,-11263.669879873978,-13992.616712166871,-187500.02235174447,-4600.950133913771,-8162.007708788838,26158.291239534767,-26227.067557223745,-21563.8901667464,79.54985851643784,-5960.830266574653,-21799.969291683352,-37736.04783249472,0.154,0.998,0.218,192.0,0.0,0.0,0.0,0.0,0.0,0.0,0.0,0.0,0.0,1696033279.938289,0.0,2023-09-29 19:21:19.938
198.0,-42787.56443113857,21809.08880342112,-41412.48511224808,-25176.8931957356,-11306.272304805792,-14028.178337595264,-187500.02235174447,-4646.950024002794,-8119.271173390291,26291.999374866413,-26031.66860719545,-21564.493663846693,73.80546019142392,-5922.184100411428,-21802.383280084527,-37689.62325926105,0.154,0.998,0.218,192.0,0.0,0.0,0.0,0.0,0.0,0.0,0.0,0.0,0.0,1696033279.938324,0.0,2023-09-29 19:21:19.938
200.0,-42810.69848664981,21638.254420549205,-41370.262666972005,-25120.902075875056,-11265.569778152678,-13997.33293024694,-187500.02235174447,-4609.823776462528,-8168.668528636519,26172.3281350527,-26239.33866492971,-21548.17689039432,91.7986144779461,-5959.511513651791,-21800.617492272555,-37739.66881509648,0.154,0.998,0.218,192.0,0.0,0.0,0.0,0.0,0.0,0.0,0.0,0.0,0.0,1696033279.938327,0.0,2023-09-29 19:21:19.938
202.0,-42785.55277413759,21841.87881253705,-41399.74461790855,-25147.29948607677,-11298.672711690988,-14023.551526493016,-187500.02235174447,-4643.977241990237,-8109.011722685304,26305.142200606133,-26016.75999364376,-21545.964067693243,91.57509703339304,-5904.772091480743,-21792.392050313003,-37682.58245975762,0.156,0.99,0.216,192.0,2.0,112.0,15.0,120.0,3.0,96.0,0.0,0.0,0.0,1696033279.93833,0.0,2023-09-29 19:21:19.938
204.0,-42786.82682357154,21615.209772015784,-41380.83504209937,-25145.109015120157,-11276.768002124789,-14012.241543798633,-187500.02235174447,-4628.219262149246,-8181.341967742678,26150.51283246432,-26232.074347981736,-21558.57045156604,85.54012603046013,-5976.163563270994,-21804.663158018968,-37749.23536172335,0.156,0.99,0.216,192.0,0.0,0.0,0.0,0.0,0.0,0.0,0.0,0.0,0.0,1696033279.938334,0.0,2023-09-29 19:21:19.938
206.0,-42788.88318406143,21917.673577985,-41403.0750278324,-25139.364616795137,-11294.269418033293,-14024.244430571132,-187500.02235174447,-4649.408715892878,-8096.718263234886,26319.335558335253,-26011.99907207478,-21554.390675352894,91.84331796685672,-5918.02667594274,-21798.51642829376,-37690.85260520608,0.156,0.99,0.216,192.0,0.0,0.0,0.0,0.0,0.0,0.0,0.0,0.0,0.0,1696033279.938337,0.0,2023-09-29 19:21:19.938
208.0,-42782.13295723593,21580.430457643328,-41385.90888809072,-25167.728980508924,-11271.627100900068,-14009.91696237528,-187500.02235174447,-4633.047238951593,-8171.551903671254,26171.03173387429,-26225.167658945044,-21551.395541595884,83.70728298512495,-5975.3141969816925,-21809.96052145488,-37752.20814373591,0.156,0.99,0.216,192.0,0.0,0.0,0.0,0.0,0.0,0.0,0.0,0.0,0.0,1696033279.93834,0.0,2023-09-29 19:21:19.938
210.0,-42795.7004661203,21937.074892172204,-41404.036152843975,-25125.797107910766,-11281.95360683842,-14016.622485711872,-187500.02235174447,-4640.982108233226,-8092.002045154816,26317.97210192348,-26014.50246745377,-21539.16913737883,91.21746912210811,-5902.179289123927,-21794.44841080289,-37681.75544521278,0.156,0.99,0.216,192.0,0.0,0.0,0.0,0.0,0.0,0.0,0.0,0.0,0.0,1696033279.998661,0.0,2023-09-29 19:21:19.998
212.0,-42780.03189325713,21531.59189600848,-41386.53473693547,-25178.904852736578,-11270.643624144031,-14010.766328664582,-187500.02235174447,-4638.925747743338,-8175.374051973111,26155.385512755576,-26216.65164430757,-21552.31196311855,87.84235570935675,-5977.1917435159385,-21809.871114477053,-37751.47053616888,0.154,0.984,0.212,192.0,2.0,104.0,15.0,96.0,3.0,80.0,0.0,0.0,0.0,1696033279.998677,0.0,2023-09-29 19:21:19.998
214.0,-42771.09119547501,21951.24589815687,-41387.78643462496,-25093.722354617403,-11275.09162129064,-14000.81980238197,-187500.02235174447,-4625.91703247035,-8085.520039262777,26313.88173268816,-26018.302264011178,-21533.916477431834,97.02892268048797,-5898.044216399696,-21786.088858376606,-37667.249163061286,0.154,0.984,0.212,192.0,0.0,0.0,0.0,0.0,0.0,0.0,0.0,0.0,0.0,1696033279.998681,0.0,2023-09-29 19:21:19.998
216.0,-42768.587800096015,21525.847497683462,-41391.45212071564,-25182.74935278289,-11287.89917086353,-14013.87322114387,-187500.02235174447,-4642.166750689358,-8159.258444220834,26181.157074112547,-26187.4826177934,-21537.35864607795,80.48863178356073,-5972.833153347154,-21809.938169710415,-37734.907893527496,0.154,0.984,0.212,192.0,0.0,0.0,0.0,0.0,0.0,0.0,0.0,0.0,0.0,1696033279.998684,0.0,2023-09-29 19:21:19.998
218.0,-42779.13782347892,21938.594810795166,-41381.75146362203,-25079.283127699277,-11274.398717212523,-13996.9529505912,-187500.02235174447,-4617.959811444261,-8079.842696171128,26300.20246508151,-26039.53642124372,-21529.60259075196,98.0794546698874,-5910.538841550212,-21788.480495033324,-37672.97120964184,0.154,0.984,0.212,192.0,0.0,0.0,0.0,0.0,0.0,0.0,0.0,0.0,0.0,1696033279.998687,0.0,2023-09-29 19:21:19.998
220.0,-42772.96874200925,21520.237209825184,-41390.42394047069,-25192.60647208768,-11299.410319258011,-14024.624410226872,-187500.02235174447,-4645.161884446369,-8158.364374442623,26190.05306840576,-26167.880137906093,-21551.50730031816,88.42350106519474,-5965.412374187991,-21809.55819005468,-37733.34327141563,0.154,0.984,0.212,192.0,0.0,0.0,0.0,0.0,0.0,0.0,0.0,0.0,0.0,1696033279.99869,0.0,2023-09-29 19:21:19.998
222.0,-42785.575125882046,21935.174993893503,-41375.023588540986,-25077.606746865124,-11273.75051662332,-14006.430090240252,-187500.02235174447,-4614.942325942794,-8096.919428934983,26283.52806371785,-26064.860947711582,-21547.59574503848,108.83064375289008,-5904.258001358271,-21789.776896211733,-37684.437654547415,0.15,0.996,0.218,192.0,2.0,88.0,15.5,16.0,3.0,104.0,0.0,0.0,0.0,1696033279.998693,0.0,2023-09-29 19:21:19.998
224.0,-42780.7471490797,21547.483986316205,-41399.81167314192,-25205.682242594037,-11300.460851247411,-14029.1618143513,-187500.02235174447,-4644.424276879344,-8175.552865928754,26202.63710053409,-26149.28348651928,-21563.55489057957,103.10859717233149,-5949.766153069277,-21813.380338356536,-37737.6571580955,0.15,0.996,0.218,192.0,0.0,0.0,0.0,0.0,0.0,0.0,0.0,0.0,0.0,1696033279.998696,0.0,2023-09-29 19:21:19.998
226.0,-42791.6995038628,21893.734859673365,-41377.63874264226,-25078.67963059898,-11255.533844892245,-13990.24742725461,-187500.02235174447,-4595.205735588758,-8115.001990199326,26265.06552279777,-26100.64609058453,-21548.17689039432,131.80823705294574,-5882.465050514347,-21793.97902416933,-37699.45802682138,0.15,0.996,0.218,192.0,0.0,0.0,0.0,0.0,0.0,0.0,0.0,0.0,0.0,1696033280.058927,0.0,2023-09-29 19:21:20.058
228.0,-42789.84430907301,21557.341105620995,-41423.05748737544,-25218.08746076673,-11299.969112869396,-14029.765311451592,-187500.02235174447,-4637.674050053841,-8158.297319209257,26223.692443810996,-26123.377814695577,-21566.997059225687,124.23099568259666,-5908.035446171218,-21811.726309266844,-37739.5570563742,0.15,0.996,0.218,192.0,0.0,0.0,0.0,0.0,0.0,0.0,0.0,0.0,0.0,1696033280.058941,0.0,2023-09-29 19:21:20.058
230.0,-42802.83067260154,21883.20718803492,-41407.52302497901,-25091.710697616425,-11264.005156040806,-13989.599226665405,-187500.02235174447,-4585.482726750699,-8123.495653092344,26258.024723294347,-26131.64796014404,-21573.479065117725,141.26302495754064,-5882.263884814249,-21806.6971667644,-37722.74854454381,0.15,0.996,0.218,192.0,0.0,0.0,0.0,0.0,0.0,0.0,0.0,0.0,0.0,1696033280.058947,0.0,2023-09-29 19:21:20.058
232.0,-42787.676189860846,21604.97267305525,-41436.87086544882,-25223.451879436005,-11301.824307659186,-14013.001503110112,-187500.02235174447,-4621.849014979483,-8158.498484909354,26251.609772635675,-26099.37204115058,-21570.90861450537,141.41948716872778,-5871.691509686889,-21819.92939948194,-37741.74752733082,0.156,1.002,0.218,192.0,2.0,112.0,15.5,40.0,3.0,104.0,0.0,0.0,0.0,1696033280.058951,0.0,2023-09-29 19:21:20.058
234.0,-42805.98226856974,21841.67764683696,-41407.50067323454,-25089.63198538208,-11246.056705243196,-13968.946214788702,-187500.02235174447,-4565.612025929931,-8135.632650331575,26236.23177245042,-26159.431178501985,-21552.26725962964,163.43595545720524,-5838.923852315409,-21796.795343970694,-37728.09061146863,0.156,1.002,0.218,192.0,0.0,0.0,0.0,0.0,0.0,0.0,0.0,0.0,0.0,1696033280.058954,0.0,2023-09-29 19:21:20.058
236.0,-42778.60138161199,21653.163034100897,-41454.39463310178,-25242.160289545096,-11303.813612915708,-14018.63414271285,-187500.02235174447,-4636.198834919791,-8140.3712201561,26269.804092622293,-26076.439151339437,-21568.181701681817,150.31548146194,-5855.39708797897,-21821.829297760643,-37742.41807966448,0.156,1.002,0.218,192.0,0.0,0.0,0.0,0.0,0.0,0.0,0.0,0.0,0.0,1696033280.058957,0.0,2023-09-29 19:21:20.058
238.0,-42792.101835263,21762.440712742893,-41405.26549878901,-25115.314139761227,-11243.709772075388,-13956.071609982446,-187500.02235174447,-4571.401127743856,-8128.569499083698,26238.265781195856,-26191.70709749545,-21555.93294572031,168.3086357484622,-5857.185227535395,-21811.905123222485,-37753.68335886996,0.156,1.002,0.218,192.0,0.0,0.0,0.0,0.0,0.0,0.0,0.0,0.0,0.0,1696033280.05896,0.0,2023-09-29 19:21:20.058
240.0,-42785.91040204888,21688.7693630182,-41435.418002059225,-25211.314882196773,-11282.490048705346,-13985.95589231919,-187500.02235174447,-4616.752817243674,-8105.770719739285,26317.79328796784,-26040.184621832923,-21545.293515359583,170.5438101939929,-5818.941392772364,-21799.678719005435,-37714.567806073166,0.156,1.002,0.218,192.0,0.0,0.0,0.0,0.0,0.0,0.0,0.0,0.0,0.0,1696033280.118273,0.0,2023-09-29 19:21:20.118
242.0,-42784.83751831502,21721.26879945621,-41401.26453653152,-25116.677596173,-11239.641754584522,-13950.081342468422,-187500.02235174447,-4572.295197522068,-8134.984449742371,26223.87125776664,-26188.309632338245,-21534.229401854205,170.96849333864373,-5850.546759432168,-21796.616530015057,-37735.533742372245,0.152,0.994,0.224,192.0,2.0,96.0,15.5,8.0,3.5,0.0,0.0,0.0,0.0,1696033280.11829,0.0,2023-09-29 19:21:20.118
244.0,-42765.05622447208,21780.07623911813,-41437.89904569376,-25198.39557390161,-11280.344281237636,-13976.344642203409,-187500.02235174447,-4616.037561421104,-8108.832908729662,26338.82627950028,-26001.829028347616,-21536.799852466567,165.40290896927226,-5809.4866048677695,-21795.476591047835,-37694.09360815211,0.152,0.994,0.224,192.0,0.0,0.0,0.0,0.0,0.0,0.0,0.0,0.0,0.0,1696033280.118296,0.0,2023-09-29 19:21:20.118
246.0,-42792.7500358522,21701.778078291187,-41404.86316738882,-25141.64449472958,-11243.530958119743,-13952.361220402863,-187500.02235174447,-4579.067776092026,-8157.000918030849,26221.971359487936,-26199.261987121343,-21534.899954187866,158.8985513327779,-5850.814980365632,-21791.78855321271,-37732.62801559306,0.152,0.994,0.224,192.0,0.0,0.0,0.0,0.0,0.0,0.0,0.0,0.0,0.0,1696033280.118302,0.0,2023-09-29 19:21:20.118
248.0,-42768.81131754057,21834.52508861126,-41428.35485081135,-25195.333384911228,-11280.254874259816,-13981.82081959496,-187500.02235174447,-4616.48459631021,-8095.421862056478,26336.702863777027,-26000.6890893804,-21543.304210103062,160.12789727781978,-5816.393293904459,-21792.459105546368,-37693.46775930736,0.152,0.994,0.224,192.0,0.0,0.0,0.0,0.0,0.0,0.0,0.0,0.0,0.0,1696033280.118306,0.0,2023-09-29 19:21:20.118
250.0,-42774.93569552132,21629.269019278174,-41392.48030096058,-25153.96030592445,-11237.943022005918,-13949.85782502387,-187500.02235174447,-4573.099860322459,-8151.837665061673,26213.43299310601,-26216.025795462825,-21537.582163522504,158.07153678793154,-5866.6847189289,-21789.642785745,-37741.2557889528,0.152,0.994,0.224,192.0,0.0,0.0,0.0,0.0,0.0,0.0,0.0,0.0,0.0,1696033280.11831,0.0,2023-09-29 19:21:20.118
252.0,-42778.42256765635,21885.0176793358,-41424.42094378721,-25167.684277020013,-11274.935159079452,-13978.33394745993,-187500.02235174447,-4601.91125892535,-8091.443251543433,26351.81264302881,-25987.16628398493,-21537.291590844583,152.66241462974725,-5817.600288105045,-21784.45718103137,-37679.49791902279,0.156,0.99,0.22,192.0,2.0,112.0,15.0,120.0,3.0,112.0,0.0,0.0,0.0,1696033280.118315,0.0,2023-09-29 19:21:20.118
254.0,-42778.37786416744,21600.79289684211,-41399.85637663083,-25162.722189750933,-11253.790408824732,-13961.301918184989,-187500.02235174447,-4578.419575502822,-8157.313842453223,26192.64587076257,-26217.009272218856,-21540.01850366813,141.35243193536186,-5875.446602755381,-21794.91779743645,-37740.98756801934,0.156,0.99,0.22,192.0,0.0,0.0,0.0,0.0,0.0,0.0,0.0,0.0,0.0,1696033280.118319,0.0,2023-09-29 19:21:20.118
0.0,-42786.89387880491,21911.057461626227,-41420.24116757407,-25140.906887162557,-11265.927406063964,-13967.493351399107,-187500.02235174447,-4582.979331371705,-8108.072949418181,26348.50458484943,-25997.492789923286,-21532.038930897583,141.86652205783392,-5807.162023444417,-21779.85272167357,-37672.88180266402,0.156,0.99,0.22,192.0,0.0,0.0,0.0,0.0,0.0,0.0,0.0,0.0,0.0,1696033280.178007,0.0,2023-09-29 19:21:20.178
2.0,-42779.85307930149,21537.02336991112,-41403.43265574368,-25174.926242223533,-11253.678650102454,-13956.630403593828,-187500.02235174447,-4566.23787477468,-8176.670453151519,26193.741106240883,-26216.53988558529,-21535.123471632414,124.65567882724748,-5875.2901405441935,-21791.587387512613,-37736.38310866155,0.156,0.99,0.22,192.0,0.0,0.0,0.0,0.0,0.0,0.0,0.0,0.0,0.0,1696033280.178016,0.0,2023-09-29 19:21:20.178
4.0,-42789.55373639509,21956.900889504064,-41415.16732158272,-25117.951645606958,-11260.920615305977,-13961.726601329638,-187500.02235174447,-4573.546895211565,-8095.108937634103,26348.102253449237,-26003.594816159584,-21536.710445488745,141.73241159110208,-5808.637238578468,-21772.70016344788,-37660.54363972469,0.156,0.99,0.22,192.0,0.0,0.0,0.0,0.0,0.0,0.0,0.0,0.0,0.0,1696033280.178019,0.0,2023-09-29 19:21:20.178
6.0,-42778.6460851009,21563.91251849085,-41407.50067323454,-25188.65021331909,-11264.295728718726,-13969.728525844635,-187500.02235174447,-4587.270866307124,-8166.232188490891,26199.820780732727,-26194.52341729682,-21547.79691073858,127.33788816188434,-5891.07047212964,-21799.36579458306,-37734.32674817166,0.148,0.99,0.214,192.0,2.0,80.0,15.0,120.0,3.0,88.0,0.0,0.0,0.0,1696033280.178023,0.0,2023-09-29 19:21:20.178
8.0,-42785.23984971522,21970.624860599622,-41406.15956856723,-25100.60669190964,-11258.864254816086,-13958.731467572628,-187500.02235174447,-4575.983235357194,-8092.918466677484,26326.957503194517,-26028.092328082603,-21528.35089306246,145.01811802603223,-5812.593497347057,-21782.02084088574,-37669.30552355117,0.148,0.99,0.214,192.0,0.0,0.0,0.0,0.0,0.0,0.0,0.0,0.0,0.0,1696033280.178026,0.0,2023-09-29 19:21:20.178
10.0,-42777.86377404496,21549.853271228465,-41412.61922271481,-25202.038908247818,-11273.348185223123,-13977.350470703896,-187500.02235174447,-4599.318456568534,-8172.021290304815,26207.75565001436,-26176.016172887823,-21541.247849613173,122.37580089280615,-5885.460184271358,-21808.082974920628,-37738.5065243848,0.148,0.99,0.214,192.0,0.0,0.0,0.0,0.0,0.0,0.0,0.0,0.0,0.0,1696033280.178029,0.0,2023-09-29 19:21:20.178
12.0,-42784.90457354839,21993.04366028829,-41405.086684833375,-25086.838017325168,-11260.250062972316,-13963.917072286258,-187500.02235174447,-4571.669348677319,-8095.98065566786,26327.270427616888,-26043.604438734583,-21539.16913737883,134.91512953223344,-5820.416607906414,-21788.83812294461,-37680.97313415684,0.148,0.99,0.214,192.0,0.0,0.0,0.0,0.0,0.0,0.0,0.0,0.0,0.0,1696033280.178032,0.0,2023-09-29 19:21:20.178
14.0,-42775.76271006617,21562.236137656702,-41416.419019272216,-25205.168152471564,-11281.774792882776,-13981.172619005754,-187500.02235174447,-4597.664427478841,-8153.402287173544,26231.78377530381,-26161.15226282505,-21547.662800271846,122.86753927082292,-5883.940265648397,-21808.41825108746,-37738.48417264035,0.148,0.99,0.214,192.0,0.0,0.0,0.0,0.0,0.0,0.0,0.0,0.0,0.0,1696033280.238336,0.0,2023-09-29 19:21:20.238
16.0,-42783.36230318097,21951.5811743237,-41390.40158872624,-25073.270508440797,-11247.531920377243,-13952.450627380686,-187500.02235174447,-4565.790839885573,-8101.322722592679,26314.52993327736,-26076.707372272896,-21530.139032618885,136.993841766577,-5832.888881312476,-21781.93143390792,-37683.36477081356,0.154,0.99,0.218,192.0,2.0,104.0,15.0,120.0,3.0,104.0,0.0,0.0,0.0,1696033280.238348,0.0,2023-09-29 19:21:20.238
18.0,-42760.18354418082,21551.01556194014,-41400.61633594231,-25202.105963481183,-11276.678595146966,-13975.115296258367,-187500.02235174447,-4600.525450769121,-8145.757990569829,26248.77110108985,-26127.624646142085,-21534.78819546559,125.52739686100446,-5884.49905925978,-21794.78368696972,-37720.2004456759,0.154,0.99,0.218,192.0,0.0,0.0,0.0,0.0,0.0,0.0,0.0,0.0,0.0,1696033280.238352,0.0,2023-09-29 19:21:20.238
20.0,-42771.47117513075,21887.69988867043,-41372.31902746189,-25062.407560635515,-11242.234556941336,-13949.679011068229,-187500.02235174447,-4559.889979349373,-8092.9855219108495,26295.1062673457,-26097.65095682752,-21512.68232019929,138.0443737559764,-5847.596329164068,-21770.085009346607,-37678.64855273349,0.154,0.99,0.218,192.0,0.0,0.0,0.0,0.0,0.0,0.0,0.0,0.0,0.0,1696033280.238355,0.0,2023-09-29 19:21:20.238
22.0,-42750.86286674296,21575.6918878188,-41400.28105977548,-25202.57535011475,-11288.94970285293,-13989.934502832237,-187500.02235174447,-4611.969543930238,-8133.688048563964,26255.14134825961,-26093.135904447547,-21535.056416399053,111.3563908763398,-5890.824602940632,-21797.376489326536,-37710.27627113775,0.154,0.99,0.218,192.0,0.0,0.0,0.0,0.0,0.0,0.0,0.0,0.0,0.0,1696033280.238358,0.0,2023-09-29 19:21:20.238
24.0,-42775.67330308835,21872.94773732993,-41365.27822795847,-25062.564022846705,-11239.105312717596,-13950.86365352436,-187500.02235174447,-4553.877360090895,-8094.192516111436,26270.34053448922,-26119.13098324907,-21523.947599404764,134.31163243194013,-5864.82952413911,-21778.22104432834,-37684.81763420315,0.154,0.99,0.218,192.0,0.0,0.0,0.0,0.0,0.0,0.0,0.0,0.0,0.0,1696033280.238361,0.0,2023-09-29 19:21:20.238
26.0,-42761.88227675943,21637.114481581983,-41408.55120522394,-25203.0000332594,-11288.323854008182,-13992.929636589246,-187500.02235174447,-4609.332038084512,-8131.363467140612,26279.81767413827,-26062.938697688427,-21537.62686701141,122.35344914835086,-5877.6370737120005,-21789.19575085589,-37699.30156461019,0.156,0.99,0.22,192.0,2.0,112.0,15.0,120.0,3.0,112.0,0.0,0.0,0.0,1696033280.238364,0.0,2023-09-29 19:21:20.238
28.0,-42785.97745728224,21820.5999518156,-41372.40843443971,-25072.331735173677,-11237.965373750374,-13953.612918092362,-187500.02235174447,-4555.084354291482,-8128.748313039341,26263.366790219163,-26158.157129068037,-21531.770709964123,131.9646992641329,-5872.831448654109,-21776.477608260822,-37702.25199487829,0.156,0.99,0.22,192.0,0.0,0.0,0.0,0.0,0.0,0.0,0.0,0.0,0.0,1696033280.238368,0.0,2023-09-29 19:21:20.238
30.0,-42778.53432637863,21699.63231082348,-41415.7261151941,-25190.103076708685,-11285.28401676226,-13994.76247963458,-187500.02235174447,-4610.002590418171,-8123.249783903335,26311.24422684243,-26042.956238145383,-21544.01946592563,121.28056541449612,-5862.147314804472,-21787.340556066105,-37693.35600058508,0.156,0.99,0.22,192.0,0.0,0.0,0.0,0.0,0.0,0.0,0.0,0.0,0.0,1696033280.298629,0.0,2023-09-29 19:21:20.298
32.0,-42787.31856194956,21781.21617808535,-41382.24320200005,-25089.944909804453,-11240.491120873823,-13965.57110137595,-187500.02235174447,-4569.702395165253,-8136.929051509983,26228.363958402155,-26184.979222414404,-21545.94171594879,128.38842015128378,-5876.027748111218,-21780.344460051598,-37719.21696891987,0.156,0.99,0.22,192.0,0.0,0.0,0.0,0.0,0.0,0.0,0.0,0.0,0.0,1696033280.298639,0.0,2023-09-29 19:21:20.298
34.0,-42774.35455016548,21762.239547042795,-41419.123580351305,-25192.293547665304,-11283.160601039006,-14005.53602046204,-187500.02235174447,-4618.742122500196,-8110.956324452916,26314.64169199964,-26025.94656061489,-21548.512166561148,134.91512953223344,-5863.711936916344,-21787.474666532835,-37700.39680008851,0.156,0.99,0.22,192.0,0.0,0.0,0.0,0.0,0.0,0.0,0.0,0.0,0.0,1696033280.298643,0.0,2023-09-29 19:21:20.298
36.0,-42777.64025660041,21707.7236423163,-41378.75632986502,-25115.492953716872,-11236.065475471672,-13967.515703143565,-187500.02235174447,-4570.529409710099,-8138.068990477203,26224.47475486693,-26203.33000461221,-21543.751244992167,143.0288127695099,-5901.97812342383,-21784.658346731467,-37736.85249529511,0.146,0.992,0.22,192.0,2.0,72.0,15.5,0.0,3.0,112.0,0.0,0.0,0.0,1696033280.298646,0.0,2023-09-29 19:21:20.298
38.0,-42774.958047265776,21808.261788876272,-41413.44623725966,-25176.15558816857,-11278.46673470339,-14002.116203560376,-187500.02235174447,-4612.707151497263,-8092.583190510654,26333.03717768636,-26007.305205739165,-21545.69584675978,140.65952785724735,-5845.539968674179,-21787.36290781056,-37690.40557031698,0.146,0.992,0.22,192.0,0.0,0.0,0.0,0.0,0.0,0.0,0.0,0.0,0.0,1696033280.298649,0.0,2023-09-29 19:21:20.298
40.0,-42777.528497878135,21669.05512440862,-41374.82242284089,-25124.277189287805,-11242.41337089698,-13973.327156701942,-187500.02235174447,-4577.547857469065,-8146.13797022557,26200.15605689956,-26207.509780825352,-21533.17886986481,138.69257434518033,-5892.858611686064,-21791.341518323603,-37738.64063485154,0.146,0.992,0.22,192.0,0.0,0.0,0.0,0.0,0.0,0.0,0.0,0.0,0.0,1696033280.298652,0.0,2023-09-29 19:21:20.298
