Sample Index,EXG Channel 0,EXG Channel 1,EXG Channel 2,EXG Channel 3,EXG Channel 4,EXG Channel 5,EXG Channel 6,EXG Channel 7,EXG Channel 8,EXG Channel 9,EXG Channel 10,EXG Channel 11,EXG Channel 12,EXG Channel 13,EXG Channel 14,EXG Channel 15,Accel Channel 0,Accel Channel 1,Accel Channel 2,Other,Other.1,Other.2,Other.3,Other.4,Other.5,Other.6,Analog Channel 0,Analog Channel 1,Analog Channel 2,Timestamp,Other.7,Timestamp (Formatted)
224.0,-132492.51335770052,-187500.02235174447,-40555.78745076507,-26408.921350112123,51292.09027196054,70093.50598973107,106647.59357542916,48518.70817169049,80477.18769039962,35464.21652605731,-7026.963773603889,19909.883428798134,49510.6338871281,25470.30454520041,-16330.050388580608,-52020.44421678117,0.0,0.0,0.0,192.0,0.0,0.0,0.0,0.0,0.0,0.0,0.0,0.0,0.0,1695412753.68553,0.0,2023-09-22 14:59:13.685
226.0,-132284.9327069441,-187500.02235174447,-40420.35823111037,-26319.000282168425,51288.357530636495,70156.49320560614,106700.34369234368,48601.02964651938,80533.37997596026,35497.34181134008,-7035.077456841166,19899.02048099285,49593.8047282463,25467.197652721126,-16330.139795558429,-51963.268454464494,-0.07,0.908,0.44,192.0,126.5,104.0,14.0,48.0,6.5,96.0,0.0,0.0,0.0,1695412753.685538,0.0,2023-09-22 14:59:13.685
228.0,-132245.52658146937,-187500.02235174447,-40520.672860225786,-26381.674573621105,51298.37111215248,70106.60411198188,106639.3681334696,48538.48946553344,80484.74258002552,35471.14556683845,-7031.054142839211,19908.877600297645,49528.31411699225,25465.27540269797,-16330.229202536251,-51965.34716669883,-0.07,0.908,0.44,192.0,0.0,0.0,0.0,0.0,0.0,0.0,0.0,0.0,0.0,1695412753.685544,0.0,2023-09-22 14:59:13.685
230.0,-132031.4639248209,-187500.02235174447,-40375.72179743312,-26281.58346195024,51293.74430105023,70174.30754593702,106711.2960471268,48624.56603343082,80529.49077242504,35488.870500191515,-7037.334983031152,19899.534571115324,49590.94370495602,25462.973173019072,-16326.921144356866,-51941.49785536502,-0.07,0.908,0.44,192.0,0.0,0.0,0.0,0.0,0.0,0.0,0.0,0.0,0.0,1695412753.685548,0.0,2023-09-22 14:59:13.685
232.0,-131989.3085347782,-187500.02235174447,-40478.96450507218,-26345.35298888123,51285.85413525751,70117.69057723173,106628.68399961996,48555.052108174816,80490.03994346142,35474.87830816249,-7031.188253305942,19902.686167083524,49539.69115492,25461.453254396118,-16328.03873157963,-51930.076113948366,-0.07,0.908,0.44,192.0,0.0,0.0,0.0,0.0,0.0,0.0,0.0,0.0,0.0,1695412753.685551,0.0,2023-09-22 14:59:13.685
234.0,-131796.1671109399,-187500.02235174447,-40356.588704179376,-26272.53100544584,51312.92209779288,70165.88093827736,106726.9422682455,48619.87216709521,80531.10009802581,35464.10476733503,-7017.687799654937,19910.21870496496,49577.756175727394,25475.13252200276,-16310.827888349044,-51952.53961712595,-0.07,0.908,0.44,192.0,0.0,0.0,0.0,0.0,0.0,0.0,0.0,0.0,0.0,1695412753.685555,0.0,2023-09-22 14:59:13.685
236.0,-131742.5005725027,-187500.02235174447,-40454.24347570461,-26328.20920088401,51298.14759470792,70112.90730391828,106636.35064796814,48560.774154755374,80504.501522124,35468.32924703709,-7024.885061369546,19904.630768851133,49559.74066969642,25466.996487021028,-16315.924086084857,-51909.62426777175,-0.072,0.91,0.442,192.0,126.5,96.0,14.0,56.0,6.5,104.0,0.0,0.0,0.0,1695412753.685558,0.0,2023-09-22 14:59:13.685
238.0,-131603.2715562906,-187500.02235174447,-40379.722759690616,-26298.12375284717,51304.07080698858,70128.19589712571,106719.27561989732,48584.15407945563,80515.31976644037,35440.6130839125,-7018.268945010776,19910.46457415397,49551.17995157003,25475.84777782533,-16308.19038250332,-51959.13338174026,-0.072,0.91,0.442,192.0,0.0,0.0,0.0,0.0,0.0,0.0,0.0,0.0,0.0,1695412753.685562,0.0,2023-09-22 14:59:13.685
240.0,-131561.27262845906,-187500.02235174447,-40476.48346143764,-26361.334486166776,51312.18449022585,70084.76645764905,106638.40700845805,48526.955965394496,80506.51317912497,35448.27973226067,-7014.670314153471,19915.0019782784,49564.054556376286,25473.09851325733,-16309.08445228153,-51945.96820425609,-0.072,0.91,0.442,192.0,0.0,0.0,0.0,0.0,0.0,0.0,0.0,0.0,0.0,1695412753.685565,0.0,2023-09-22 14:59:13.685
0.0,-82186.0456092412,-93750.01117587223,-19826.86904989112,-13829.627791598772,25666.84343419593,35045.43424194268,53329.78705522861,24398.67250903517,40242.10306907929,17709.734166828894,-3505.893469559368,9958.59622461751,24749.50549000567,12739.80143544691,-8151.100057494647,-26010.76972612974,-0.075,0.91,0.444,192.0,126.5,72.0,14.0,56.0,6.5,120.0,0.0,0.0,0.0,1695412753.865137,0.0,2023-09-22 14:59:13.865
2.0,-164452.9151264328,-187500.02235174447,-39739.45703976835,-27706.171894809235,51315.33608619405,70060.42540793722,106567.39551632352,48754.4073169717,80655.37579719732,35470.16209008242,-7074.081250915677,19905.524838629342,49541.07696307623,25633.60639019089,-16330.676237425358,-53311.01158988614,-0.075,0.91,0.444,192.0,0.0,0.0,0.0,0.0,0.0,0.0,0.0,0.0,0.0,1695412753.865151,0.0,2023-09-22 14:59:13.865
4.0,-164516.34937719695,-187500.02235174447,-39724.883702383486,-27721.214618827657,51345.57799644208,70058.54786140297,106643.86083410511,48749.22171225807,80633.85106728686,35430.10776401851,-7067.06280315671,19908.698786342,49482.046005969765,25639.708416427187,-16322.741368143725,-53372.143610971405,-0.075,0.91,0.444,192.0,0.0,0.0,0.0,0.0,0.0,0.0,0.0,0.0,0.0,1695412753.865154,0.0,2023-09-22 14:59:13.865
6.0,-164550.4357874913,-187500.02235174447,-39729.42110650792,-27719.53823799351,51319.06882751809,70066.92976557372,106598.44208937194,48759.4588112186,80667.0881112919,35457.73452016527,-7070.057936913721,19903.13320197263,49552.27518704834,25641.250686794603,-16324.104824555496,-53332.60337502997,-0.075,0.91,0.444,192.0,0.0,0.0,0.0,0.0,0.0,0.0,0.0,0.0,0.0,1695412753.865158,0.0,2023-09-22 14:59:13.865
8.0,-164618.31803540207,-187500.02235174447,-39729.979900119295,-27739.520697536555,51347.54494995415,70057.11734975784,106647.1241887956,48749.60169191381,80638.47787838911,35427.85023782853,-7071.06376541421,19898.729908314934,49477.66506405653,25637.607352448387,-16325.37887398945,-53376.72571858475,-0.074,0.91,0.442,192.0,126.5,88.0,14.0,56.0,6.5,104.0,0.0,0.0,0.0,1695412753.865161,0.0,2023-09-22 14:59:13.865
10.0,-164652.09152127404,-187500.02235174447,-39721.95562385984,-27737.77726146904,51325.4167229434,70067.35444871837,106596.07280445968,48759.43645947414,80677.63813467481,35466.78697666967,-7077.724585261892,19893.052565223286,49556.23144581693,25637.987332104127,-16326.407054234392,-53319.95228766827,-0.074,0.91,0.442,192.0,0.0,0.0,0.0,0.0,0.0,0.0,0.0,0.0,0.0,1695412753.865164,0.0,2023-09-22 14:59:13.865
12.0,-164704.90869342192,-187500.02235174447,-39720.65922268143,-27746.561497039977,51347.18732204287,70069.65667839727,106651.54983419777,48766.18668629965,80642.94822728017,35428.36432795099,-7075.087079416166,19897.947597259,49476.70393904495,25637.674407681752,-16323.970714088764,-53376.97158777376,-0.074,0.91,0.442,192.0,0.0,0.0,0.0,0.0,0.0,0.0,0.0,0.0,0.0,1695412753.865167,0.0,2023-09-22 14:59:13.865
14.0,-164692.50347524925,-187500.02235174447,-39666.23272493276,-27709.05526984397,51326.35549621052,70095.33883277641,106618.0222175148,48803.6705617512,80679.15805329777,35469.51388949322,-7084.005425453834,19888.15753318757,49572.1011843802,25629.180744788737,-16333.581964204546,-53287.072871574506,-0.074,0.91,0.442,192.0,0.0,0.0,0.0,0.0,0.0,0.0,0.0,0.0,0.0,1695412753.86517,0.0,2023-09-22 14:59:13.865
16.0,-164767.02419126322,-187500.02235174447,-39696.7205043698,-27736.994950413104,51349.2213307883,70073.34471623239,106640.59747941465,48782.70462545212,80625.55857009394,35435.24866524323,-7078.484544573373,19897.00882399188,49480.2802181578,25627.482012210134,-16327.032903079142,-53327.44012206079,-0.074,0.91,0.442,192.0,0.0,0.0,0.0,0.0,0.0,0.0,0.0,0.0,0.0,1695412753.925447,0.0,2023-09-22 14:59:13.925
18.0,-164775.51785415626,-187500.02235174447,-39646.63024504545,-27713.972653624136,51336.79376087114,70090.46615248515,106625.19712748492,48802.93295418417,80674.0395038175,35471.43613951637,-7077.501067817339,19896.94176875851,49568.14492561161,25633.67344542425,-16327.859917623988,-53269.14677252135,-0.074,0.906,0.44,192.0,126.5,88.0,14.0,40.0,6.5,96.0,0.0,0.0,0.0,1695412753.925469,0.0,2023-09-22 14:59:13.925
20.0,-164883.02974498627,-187500.02235174447,-39719.94396685886,-27770.00847697359,51349.757772655226,70052.71405610014,106631.05328453225,48760.19641878563,80637.76262256654,35424.72099360478,-7063.955910677423,19901.345062416203,49476.681587300496,25638.16614605977,-16321.579077432049,-53344.98624145821,-0.074,0.906,0.44,192.0,0.0,0.0,0.0,0.0,0.0,0.0,0.0,0.0,0.0,1695412753.925472,0.0,2023-09-22 14:59:13.925
22.0,-164861.59442205363,-187500.02235174447,-39632.92862569435,-27719.91821764925,51329.10476077852,70086.33107976093,106629.51101416482,48808.0738554089,80677.97341084165,35460.72965392228,-7092.812012769225,19876.84755049319,49573.68815823653,25621.78231737403,-16339.460472996292,-53273.01362431212,-0.074,0.906,0.44,192.0,0.0,0.0,0.0,0.0,0.0,0.0,0.0,0.0,0.0,1695412753.925476,0.0,2023-09-22 14:59:13.925
24.0,-164975.47656005342,-187500.02235174447,-39720.681574425886,-27785.27471843657,51346.22619703129,70046.79084381949,106618.31279019272,48753.535598937946,80623.14458169277,35419.1107057465,-7070.661434014015,19899.825143793245,49475.16166867753,25635.84156463642,-16324.775376889156,-53344.78507575811,-0.074,0.906,0.44,192.0,0.0,0.0,0.0,0.0,0.0,0.0,0.0,0.0,0.0,1695412753.925479,0.0,2023-09-22 14:59:13.925
26.0,-164967.65344949407,-187500.02235174447,-39635.186151884336,-27743.432252816237,51338.42543821639,70079.7373151466,106635.21070900092,48794.55105001343,80680.47680622063,35450.9172381064,-7075.511762560816,19893.99133849041,49562.53463775333,25627.77258488805,-16332.397321748416,-53293.59958095546,-0.074,0.906,0.44,192.0,0.0,0.0,0.0,0.0,0.0,0.0,0.0,0.0,0.0,1695412753.925483,0.0,2023-09-22 14:59:13.925
28.0,-165077.73579093645,-187500.02235174447,-39723.20732154934,-27800.160980243803,51344.63922317496,70046.6343816083,106601.79485104023,48748.28293899095,80639.59546561187,35430.39833669643,-7060.5360937757605,19904.18373396203,49487.32101766122,25643.08352983994,-16325.289467011627,-53339.71122976676,-0.07,0.908,0.438,192.0,126.5,104.0,14.0,48.0,6.5,88.0,0.0,0.0,0.0,1695412753.925486,0.0,2023-09-22 14:59:13.925
30.0,-165023.44340365453,-187500.02235174447,-39590.92969786283,-27715.60433096937,51341.71114465132,70105.39711778131,106649.35936324112,48824.86001549483,80689.64102144731,35462.76366266771,-7081.747899263847,19889.297472154794,49565.84269593271,25626.140907542816,-16335.258345038696,-53272.4771824452,-0.07,0.908,0.438,192.0,0.0,0.0,0.0,0.0,0.0,0.0,0.0,0.0,0.0,1695412753.985698,0.0,2023-09-22 14:59:13.985
32.0,-165149.0825592378,-187500.02235174447,-39709.75157138724,-27801.79265758904,51340.21357777281,70045.22622170762,106585.8133537547,48747.92531107966,80640.1319074788,35433.75109836472,-7066.995747923344,19904.384899662127,49487.56688685023,25642.21181180618,-16322.048464065609,-53299.94747638077,-0.07,0.908,0.438,192.0,0.0,0.0,0.0,0.0,0.0,0.0,0.0,0.0,0.0,1695412753.985713,0.0,2023-09-22 14:59:13.985
34.0,-165104.28966334937,-187500.02235174447,-39582.816014625554,-27731.54112476601,51339.78889462816,70103.40781252478,106661.429305247,48819.80852124793,80671.37964622732,35450.425499728386,-7083.267817886808,19893.45489662348,49541.61340494316,25632.444099479213,-16326.250592023203,-53279.24976101516,-0.07,0.908,0.438,192.0,0.0,0.0,0.0,0.0,0.0,0.0,0.0,0.0,0.0,1695412753.985717,0.0,2023-09-22 14:59:13.985
36.0,-165261.1989094256,-187500.02235174447,-39729.80108616365,-27842.673998197795,51337.48666494926,70032.23985817908,106580.42658334096,48717.59399385381,80637.47204988862,35436.29919723263,-7061.564274020705,19914.71140560048,49493.3336369197,25648.8055764205,-16310.26909473766,-53303.50140374917,-0.07,0.908,0.438,192.0,0.0,0.0,0.0,0.0,0.0,0.0,0.0,0.0,0.0,1695412753.985721,0.0,2023-09-22 14:59:13.985
38.0,-165224.22912409654,-187500.02235174447,-39609.32518354955,-27774.702343309207,51338.51484519421,70093.12601007534,106669.40887801754,48793.5675732574,80669.792672371,35444.21171476981,-7080.965588207911,19898.864018781667,49536.36074499616,25642.278867039546,-16313.063062794576,-53311.52568000861,-0.076,0.906,0.436,192.0,126.5,80.0,14.0,40.0,6.5,80.0,0.0,0.0,0.0,1695412753.985735,0.0,2023-09-22 14:59:13.985
40.0,-165338.1336138408,-187500.02235174447,-39718.51345521373,-27851.41353027982,51336.63729865996,70047.9307827867,106585.6568915435,48727.42876141414,80651.73246285111,35453.08535731857,-7071.3319863476745,19911.068071254263,49519.01579129884,25650.928992143752,-16297.70741435378,-53290.93972336528,-0.076,0.906,0.436,192.0,0.0,0.0,0.0,0.0,0.0,0.0,0.0,0.0,0.0,1695412753.985738,0.0,2023-09-22 14:59:13.985
42.0,-165299.71096512213,-187500.02235174447,-39597.009372354674,-27783.106599224404,51349.44484823285,70105.46417301467,106687.06675613722,48805.59281177435,80660.15907051075,35443.89879034743,-7074.930617204978,19902.08266998323,49531.130436793625,25651.68895145523,-16287.380908415427,-53317.71711322274,-0.076,0.906,0.436,192.0,0.0,0.0,0.0,0.0,0.0,0.0,0.0,0.0,0.0,1695412753.985741,0.0,2023-09-22 14:59:13.985
44.0,-165390.61550982186,-187500.02235174447,-39695.28999272466,-27845.490317999163,51347.14261855395,70062.54882366047,106595.22343817036,48749.71345063609,80654.54878265248,35458.49447947675,-7069.074460157688,19905.61424560717,49542.3957159991,25649.49848049861,-16273.053440219575,-53268.85619984343,-0.076,0.906,0.436,192.0,0.0,0.0,0.0,0.0,0.0,0.0,0.0,0.0,0.0,1695412753.985744,0.0,2023-09-22 14:59:13.985
46.0,-165382.41241960676,-187500.02235174447,-39615.337802808026,-27807.559407658508,51357.73734542577,70094.8917978873,106682.685814224,48794.66280873571,80662.12602402283,35444.07760430308,-7070.370861336096,19910.93396078753,49523.39673321209,25653.141814844825,-16264.850350004475,-53302.8308514155,-0.076,0.906,0.436,192.0,0.0,0.0,0.0,0.0,0.0,0.0,0.0,0.0,0.0,1695412754.045894,0.0,2023-09-22 14:59:14.045
48.0,-165474.4569032737,-187500.02235174447,-39696.9663735588,-27865.204556608744,51331.9657840688,70056.75972184655,106587.26621714428,48742.98557555504,80669.65856190426,35463.478918490284,-7066.30284384523,19917.28185621284,49544.87675963363,25660.69670447072,-16266.16910292734,-53266.799839353545,-0.074,0.902,0.436,192.0,126.5,88.0,14.0,24.0,6.5,80.0,0.0,0.0,0.0,1695412754.045906,0.0,2023-09-22 14:59:14.045
50.0,-165462.4987199901,-187500.02235174447,-39613.19203534032,-27820.881047353872,51343.946319096845,70099.07157410045,106677.2319885769,48800.496614038544,80656.60514314237,35437.39443271094,-7068.716832246403,19909.92813228704,49505.62709637012,25658.55093700301,-16272.718164052743,-53313.02324688712,-0.074,0.902,0.436,192.0,0.0,0.0,0.0,0.0,0.0,0.0,0.0,0.0,0.0,1695412754.045909,0.0,2023-09-22 14:59:14.045
52.0,-165538.04761624904,-187500.02235174447,-39677.29683843814,-27867.84206245447,51331.38463871296,70063.80052134997,106583.6005310536,48756.35191873931,80671.71492239415,35468.8209854151,-7065.520532789295,19912.23036196594,49559.47244876295,25655.73461720164,-16274.863931520456,-53245.76684782111,-0.074,0.902,0.436,192.0,0.0,0.0,0.0,0.0,0.0,0.0,0.0,0.0,0.0,1695412754.045913,0.0,2023-09-22 14:59:14.045
54.0,-165556.21958449122,-187500.02235174447,-39630.604044271,-27847.70314070024,51351.05417383363,70087.78394315051,106676.8743606656,48785.23037257557,80649.94432329468,35428.96782505129,-7059.977300164378,19917.57242889076,49492.7301398194,25665.904660928805,-16267.778428528123,-53328.66946800584,-0.074,0.902,0.436,192.0,0.0,0.0,0.0,0.0,0.0,0.0,0.0,0.0,0.0,1695412754.045922,0.0,2023-09-22 14:59:14.045
56.0,-165598.26321581166,-187500.02235174447,-39655.23566666075,-27870.2784026001,51324.67911537637,70073.76939937704,106591.20012416842,48763.526828709466,80665.97052406914,35471.68200870538,-7075.645873027548,19900.763917060365,49565.90975116608,25654.05823636749,-16285.101030480986,-53241.1176849744,-0.074,0.902,0.436,192.0,0.0,0.0,0.0,0.0,0.0,0.0,0.0,0.0,0.0,1695412754.045925,0.0,2023-09-22 14:59:14.045
58.0,-165629.26508537115,-187500.02235174447,-39635.543779795626,-27867.41737930982,51342.046420818144,70085.21349253815,106660.13290406858,48777.54137248294,80634.32045392043,35431.471220430285,-7073.723623004392,19904.586065362226,49482.113061203134,25654.59467823442,-16283.402297902385,-53316.97950565571,-0.072,0.908,0.438,192.0,126.5,96.0,14.0,48.0,6.5,88.0,0.0,0.0,0.0,1695412754.045929,0.0,2023-09-22 14:59:14.045
60.0,-165637.35641686397,-187500.02235174447,-39611.71682020627,-27853.44753902525,51321.25929847471,70092.18723680821,106597.77153703828,48785.543296997945,80677.61578293036,35477.337000052576,-7080.675015529992,19897.120582714157,49566.35678605519,25646.726864186152,-16301.440155677816,-53223.59391732144,-0.072,0.908,0.438,192.0,0.0,0.0,0.0,0.0,0.0,0.0,0.0,0.0,0.0,1695412754.106323,0.0,2023-09-22 14:59:14.106
62.0,-165716.8615718915,-187500.02235174447,-39645.42325084487,-27893.412458111343,51347.991984843255,70066.2368614956,106645.69367715046,48755.74842163902,80626.16206719424,35427.93964480634,-7065.051146155733,19911.11277474317,49466.377433106594,25657.07572186896,-16286.240969448208,-53308.26232531814,-0.072,0.908,0.438,192.0,0.0,0.0,0.0,0.0,0.0,0.0,0.0,0.0,0.0,1695412754.106335,0.0,2023-09-22 14:59:14.106
64.0,-165681.99285054122,-187500.02235174447,-39571.52838367562,-27839.343588273958,51321.371057196986,70109.1969143387,106620.01152277132,48809.50436705403,80681.37087599885,35476.26411631872,-7085.7712132658025,19895.80182979129,49574.98455941493,25639.88723038283,-16302.825963834044,-53216.37430386237,-0.072,0.908,0.438,192.0,0.0,0.0,0.0,0.0,0.0,0.0,0.0,0.0,0.0,1695412754.106338,0.0,2023-09-22 14:59:14.106
66.0,-165755.2842206102,-187500.02235174447,-39614.600195241,-27879.04028642658,51346.40501098693,70082.06189656995,106633.6237351446,48778.48014575007,80637.85202954436,35441.08247054607,-7067.219265367898,19911.13512648763,49483.78944203728,25654.482919512146,-16287.425611904338,-53260.87662707289,-0.072,0.908,0.438,192.0,0.0,0.0,0.0,0.0,0.0,0.0,0.0,0.0,0.0,1695412754.106342,0.0,2023-09-22 14:59:14.106
68.0,-165764.29197362566,-187500.02235174447,-39576.42341571134,-27868.95964967724,51332.50222593573,70087.4933704726,106618.44690065944,48783.75515744152,80686.02003884556,35470.00562787124,-7067.129858390076,19905.90481828509,49572.68232973604,25650.727826443654,-16281.815324046056,-53205.86898396838,-0.07,0.906,0.438,192.0,126.5,104.0,14.0,40.0,6.5,88.0,0.0,0.0,0.0,1695412754.106345,0.0,2023-09-22 14:59:14.106
70.0,-165838.36565475055,-187500.02235174447,-39632.79451522762,-27907.315243162546,51345.68975516436,70066.68389638471,106630.00275254284,48753.245026260025,80634.05223298696,35429.68308087386,-7060.357279820119,19913.303245699797,49483.76709029282,25656.4051695353,-16271.555873341067,-53276.522848191606,-0.07,0.906,0.438,192.0,0.0,0.0,0.0,0.0,0.0,0.0,0.0,0.0,0.0,1695412754.106348,0.0,2023-09-22 14:59:14.106
72.0,-165822.22769525382,-187500.02235174447,-39563.12412776043,-27876.000449180658,51338.47014170529,70091.58373970792,106631.67913337698,48778.25662830551,80695.76539942807,35467.34577028105,-7069.946178191445,19904.742527573413,49578.89611469461,25646.279829297047,-16278.93194901132,-53201.644504266325,-0.07,0.906,0.438,192.0,0.0,0.0,0.0,0.0,0.0,0.0,0.0,0.0,0.0,1695412754.106351,0.0,2023-09-22 14:59:14.106
74.0,-165894.69205077793,-187500.02235174447,-39628.19005586983,-27919.116964234945,51347.50024646524,70076.5410156895,106628.92986880898,48745.06428778938,80649.76550933903,35434.95809256531,-7054.814047195202,19923.96502780497,49489.66795082903,25670.665582497782,-16265.11857093794,-53266.26339748662,-0.07,0.906,0.438,192.0,0.0,0.0,0.0,0.0,0.0,0.0,0.0,0.0,0.0,1695412754.106355,0.0,2023-09-22 14:59:14.106
76.0,-165822.40650920945,-187500.02235174447,-39496.62768800589,-27834.068576582504,51331.69756313533,70135.12493790686,106654.85789237711,48821.75312301554,80693.23965230462,35472.374912783496,-7079.199800395943,19901.41211764957,49576.88445769363,25654.5052712566,-16281.971786257243,-53185.86417268088,-0.07,0.906,0.438,192.0,0.0,0.0,0.0,0.0,0.0,0.0,0.0,0.0,0.0,1695412754.165157,0.0,2023-09-22 14:59:14.165
78.0,-165946.79396710324,-187500.02235174447,-39621.43982904433,-27926.80596432757,51349.198979043846,70063.57700390542,106591.24482765733,48734.55896789539,80646.3903959263,35453.75590965222,-7068.403907824029,19916.968931790463,49499.43566315599,25659.422655036768,-16273.545178597593,-53202.04683566652,-0.074,0.91,0.442,192.0,126.5,88.0,14.0,56.0,6.5,104.0,0.0,0.0,0.0,1695412754.165168,0.0,2023-09-22 14:59:14.165
80.0,-165892.09924842112,-187500.02235174447,-39498.43817930677,-27856.30856231553,51336.57024342659,70115.07542313045,106657.74126741188,48804.1175966403,80691.69738193719,35468.44100575936,-7080.026814940788,19901.92620777204,49562.1993615865,25652.426559022257,-16279.736611811712,-53185.19362034722,-0.074,0.91,0.442,192.0,0.0,0.0,0.0,0.0,0.0,0.0,0.0,0.0,0.0,1695412754.165171,0.0,2023-09-22 14:59:14.165
82.0,-165967.5810894467,-187500.02235174447,-39581.36315123596,-27907.404650140365,51332.50222593573,70082.26306227005,106593.27883640277,48760.95637809711,80651.21837272863,35458.60623819903,-7071.868428214601,19905.90481828509,49511.4385499285,25660.69670447072,-16282.910559524364,-53184.52306801356,-0.074,0.91,0.442,192.0,0.0,0.0,0.0,0.0,0.0,0.0,0.0,0.0,0.0,1695412754.165175,0.0,2023-09-22 14:59:14.165
84.0,-165940.08844376667,-187500.02235174447,-39487.21760359021,-27866.41155080933,51337.71018239381,70107.56523699347,106648.30883125172,48802.0165326615,80668.7421403816,35462.13781382296,-7078.126916662088,19901.657986838574,49544.04974508879,25655.84637592392,-16291.292463695108,-53157.45510547818,-0.074,0.91,0.442,192.0,0.0,0.0,0.0,0.0,0.0,0.0,0.0,0.0,0.0,1695412754.165178,0.0,2023-09-22 14:59:14.165
86.0,-166080.0550675458,-187500.02235174447,-39633.353308839,-27974.3034212951,51342.09112430705,70036.35257915886,106569.51893204678,48705.21112742557,80651.15131749527,35440.09899379003,-7063.77709672178,19916.27602771235,49496.999323010365,25669.235070852646,-16281.010661245664,-53185.79711744751,-0.074,0.91,0.442,192.0,0.0,0.0,0.0,0.0,0.0,0.0,0.0,0.0,0.0,1695412754.165181,0.0,2023-09-22 14:59:14.165
88.0,-166065.6381923721,-187500.02235174447,-39543.6334065954,-27938.33946446651,51347.41083948742,70075.0881522999,106657.56245345622,48750.78633436994,80672.29606775,35436.992101310745,-7069.4544398134285,19907.804716563787,49519.90986107706,25666.686971984745,-16281.03301299012,-53218.1624434188,-0.074,0.908,0.446,192.0,126.5,88.0,14.0,48.0,6.5,120.0,0.0,0.0,0.0,1695412754.165184,0.0,2023-09-22 14:59:14.165
90.0,-166150.46306258,-187500.02235174447,-39639.88001821996,-28000.477314052263,51328.05422878912,70040.77822456101,106567.93195819044,48699.0420459559,80661.92485832273,35450.9172381064,-7069.946178191445,19910.50927764288,49515.32775346372,25664.16122486129,-16289.727841583232,-53207.56771654698,-0.074,0.908,0.446,192.0,0.0,0.0,0.0,0.0,0.0,0.0,0.0,0.0,0.0,1695412754.225525,0.0,2023-09-22 14:59:14.225
92.0,-166102.07153583426,-187500.02235174447,-39523.80740926354,-27935.076109776037,51342.7169731518,70096.43406825472,106656.08723832216,48772.42282300268,80672.67604740574,35450.22433402829,-7080.093870174154,19905.390728162616,49524.78254136832,25663.289506827536,-16294.42170791885,-53215.4578823397,-0.074,0.908,0.446,192.0,0.0,0.0,0.0,0.0,0.0,0.0,0.0,0.0,0.0,1695412754.225538,0.0,2023-09-22 14:59:14.225
94.0,-166182.87309204022,-187500.02235174447,-39610.28630856112,-27996.96809017278,51326.24373748824,70057.1397015023,106560.06414414218,48718.55511886539,80670.59733517139,35463.09893883454,-7073.142477648554,19908.4976206419,49538.30534676377,25663.334210316447,-16293.862914307469,-53174.442431264215,-0.074,0.908,0.446,192.0,0.0,0.0,0.0,0.0,0.0,0.0,0.0,0.0,0.0,1695412754.225541,0.0,2023-09-22 14:59:14.225
96.0,-166156.38627486068,-187500.02235174447,-39523.24861565216,-27954.32096175205,51342.40404872943,70092.61191995286,106653.15915979852,48767.84071538934,80676.9899340856,35435.85216234352,-7073.745974748847,19902.7979258058,49513.65137262957,25658.43917828073,-16293.12530674044,-53215.92726897327,-0.074,0.908,0.446,192.0,0.0,0.0,0.0,0.0,0.0,0.0,0.0,0.0,0.0,1695412754.225544,0.0,2023-09-22 14:59:14.225
98.0,-166206.65534814066,-187500.02235174447,-39578.703293645776,-27992.140113370435,51329.752961367725,70064.38166670581,106561.40524880947,48731.83205507184,80680.65562017627,35472.285505805674,-7071.935483447967,19906.70948108548,49558.75719294038,25657.94743990272,-16294.779335830131,-53141.58536691492,-0.07,0.9,0.442,192.0,126.5,104.0,14.0,16.0,6.5,104.0,0.0,0.0,0.0,1695412754.225548,0.0,2023-09-22 14:59:14.225
100.0,-166215.6854529006,-187500.02235174447,-39527.78601977659,-27973.29759279461,51343.81220863012,70088.543902462,106658.34476451216,48758.18476178465,80652.73829135159,35438.42261295588,-7063.77709672178,19923.36153070468,49496.0829014877,25674.93476568875,-16277.702603066278,-53217.13426317385,-0.07,0.9,0.442,192.0,0.0,0.0,0.0,0.0,0.0,0.0,0.0,0.0,0.0,1695412754.225551,0.0,2023-09-22 14:59:14.225
102.0,-166263.87581394624,-187500.02235174447,-39565.31459871705,-27997.72804948426,51319.80643508511,70076.07162905594,106566.18852212292,48736.48121791855,80678.50985270856,35500.91809045292,-7075.623521283093,19915.35960618968,49560.0982976077,25668.341001074437,-16296.902751553387,-53130.5883086429,-0.07,0.9,0.442,192.0,0.0,0.0,0.0,0.0,0.0,0.0,0.0,0.0,0.0,1695412754.225554,0.0,2023-09-22 14:59:14.225
104.0,-166270.4472268161,-187500.02235174447,-39517.50421732714,-27978.59495623052,51341.71114465132,70100.92676889023,106648.35353474064,48767.59484620033,80645.85395405936,35464.64120920196,-7072.024890425789,19918.13122250214,49483.67768331501,25673.727771488164,-16291.583036373024,-53201.3092280995,-0.07,0.9,0.442,192.0,0.0,0.0,0.0,0.0,0.0,0.0,0.0,0.0,0.0,1695412754.225557,0.0,2023-09-22 14:59:14.225
106.0,-166297.001099229,-187500.02235174447,-39524.85794125294,-27992.96712791528,51317.90653680641,70096.5011234881,106574.74924024932,48758.02829957346,80672.05019856099,35500.73927649728,-7079.4903730738615,19913.14678348861,49558.48897200692,25669.212719108196,-16301.015472533163,-53113.0868927344,-0.07,0.9,0.442,192.0,0.0,0.0,0.0,0.0,0.0,0.0,0.0,0.0,0.0,1695412754.286768,0.0,2023-09-22 14:59:14.286
108.0,-166341.07873929487,-187500.02235174447,-39523.00274646315,-28006.177008888368,51344.996851086245,70091.31551877446,106630.0698077762,48755.41314547219,80637.89673303327,35467.21165981432,-7077.098736417143,19918.287684713327,49477.35213963415,25668.184538863246,-16295.494591652703,-53173.36954753036,-0.07,0.9,0.442,192.0,126.5,104.0,14.0,16.0,6.5,104.0,0.0,0.0,0.0,1695412754.286779,0.0,2023-09-22 14:59:14.286
110.0,-166338.12830902677,-187500.02235174447,-39492.31380132602,-27985.971031900768,51320.67815311887,70104.21247532517,106588.45085960042,48774.6132939593,80677.41461723026,35498.14647414046,-7087.425242355495,19905.03310025133,49566.17797209954,25668.720980730177,-16304.904676068389,-53103.72151180763,-0.07,0.9,0.442,192.0,0.0,0.0,0.0,0.0,0.0,0.0,0.0,0.0,0.0,1695412754.286783,0.0,2023-09-22 14:59:14.286
112.0,-166398.76859173403,-187500.02235174447,-39522.04162145157,-28017.64345379394,51346.89674936495,70084.1406088043,106617.88810704806,48753.7591163825,80626.54204684998,35453.286523018665,-7073.634216026571,19917.214800979476,49473.15001167655,25675.27004185558,-16296.679234108837,-53165.3452712709,-0.07,0.9,0.442,192.0,0.0,0.0,0.0,0.0,0.0,0.0,0.0,0.0,0.0,1695412754.286786,0.0,2023-09-22 14:59:14.286
114.0,-166383.79292294895,-187500.02235174447,-39472.800728416536,-27991.02252614767,51329.4176852009,70103.92190264726,106590.0601852012,48776.58024747136,80681.84026263241,35493.29614559366,-7079.579780051682,19909.57050437576,49568.41314654507,25664.45179753921,-16302.445984178305,-53085.88481973229,-0.07,0.9,0.442,192.0,0.0,0.0,0.0,0.0,0.0,0.0,0.0,0.0,0.0,1695412754.286789,0.0,2023-09-22 14:59:14.286
116.0,-166441.8851067883,-187500.02235174447,-39509.43523757878,-28017.84461949404,51343.81220863012,70087.64983268379,106609.75207206632,48753.93793033814,80642.41178541325,35458.53918296566,-7064.134724633065,19922.33335045974,49471.76420352032,25675.18063487776,-16297.059213764574,-53149.43082921873,-0.07,0.9,0.442,192.0,0.0,0.0,0.0,0.0,0.0,0.0,0.0,0.0,0.0,1695412754.286792,0.0,2023-09-22 14:59:14.286
118.0,-166407.15049590476,-187500.02235174447,-39430.57828314046,-27973.141130583423,51322.756865353214,70116.5506382645,106593.4576503584,48790.013645889005,80689.3951522583,35503.35443059855,-7082.016120197311,19910.5986846207,49569.86600993467,25666.5081580291,-16311.61019940498,-53061.87904618729,-0.066,0.902,0.444,192.0,126.5,120.0,14.0,24.0,6.5,112.0,0.0,0.0,0.0,1695412754.286795,0.0,2023-09-22 14:59:14.286
120.0,-166518.7080524812,-187500.02235174447,-39531.11642970043,-28053.674465855893,51341.26410976221,70059.91131781475,106577.4090978395,48718.5998223543,80640.80245981246,35454.78408989717,-7064.179428121976,19926.37901620615,49477.55330533425,25688.569329806487,-16296.7462893422,-53130.63301213182,-0.066,0.902,0.444,192.0,0.0,0.0,0.0,0.0,0.0,0.0,0.0,0.0,0.0,1695412754.286798,0.0,2023-09-22 14:59:14.286
122.0,-166456.63725812882,-187500.02235174447,-39415.49085563313,-27985.72516271176,51321.28165021916,70113.04141438502,106602.3089411627,48789.43250053317,80690.80331215898,35485.8753664345,-7079.35626260713,19909.436393909025,49572.45881229149,25676.32057384498,-16310.22439124875,-53080.36393885183,-0.066,0.902,0.444,192.0,0.0,0.0,0.0,0.0,0.0,0.0,0.0,0.0,0.0,1695412754.347011,0.0,2023-09-22 14:59:14.347
124.0,-166559.92466925678,-187500.02235174447,-39517.45951383824,-28060.871727570506,51339.56537718361,70060.2912974705,106565.69678374492,48723.740723579016,80643.26115170255,35462.16016556742,-7062.838323454657,19921.059301025787,49491.76901480783,25677.147588389827,-16300.613141132968,-53113.95861076815,-0.066,0.902,0.444,192.0,0.0,0.0,0.0,0.0,0.0,0.0,0.0,0.0,0.0,1695412754.347022,0.0,2023-09-22 14:59:14.347
126.0,-166464.50507217707,-187500.02235174447,-39363.92538117473,-27954.700941407795,51328.30009797813,70134.05205417301,106622.00082802784,48822.37897186029,80689.99864935859,35498.32528809611,-7079.289207373764,19904.72017582896,49574.55987627028,25667.96102141869,-16312.548972672104,-53053.273624572,-0.066,0.902,0.444,192.0,0.0,0.0,0.0,0.0,0.0,0.0,0.0,0.0,0.0,1695412754.347026,0.0,2023-09-22 14:59:14.347
128.0,-166552.07920695297,-187500.02235174447,-39466.81046090251,-28024.46073585281,51342.44875221834,70081.05606806948,106560.37706856454,48755.03316581645,80649.05025351647,35478.722808208804,-7064.067669399699,19921.88631557063,49507.30347720427,25676.14175988934,-16304.435289434829,-53050.3231943039,-0.066,0.908,0.444,192.0,126.5,120.0,14.0,48.0,6.5,112.0,0.0,0.0,0.0,1695412754.347029,0.0,2023-09-22 14:59:14.347
130.0,-166527.67110200776,-187500.02235174447,-39378.52107030405,-27990.44138079183,51353.87049363501,70109.93452190573,106627.36524669713,48789.3654452998,80675.76058814056,35480.68976172087,-7062.413640310007,19926.289609228326,49554.37625102714,25682.17673089227,-16296.209847475273,-53048.51270300302,-0.066,0.908,0.444,192.0,0.0,0.0,0.0,0.0,0.0,0.0,0.0,0.0,0.0,1695412754.347032,0.0,2023-09-22 14:59:14.347
132.0,-166664.44142632978,-187500.02235174447,-39521.46047609574,-28098.93674837789,51352.59644420105,70038.23012569311,106551.77164694926,48692.89531623069,80643.90935229175,35470.74323543826,-7052.310651816208,19937.28666750034,49502.94488703548,25698.851132255928,-16289.124344482942,-53081.19095339668,-0.066,0.908,0.444,192.0,0.0,0.0,0.0,0.0,0.0,0.0,0.0,0.0,0.0,1695412754.347035,0.0,2023-09-22 14:59:14.347
134.0,-166598.50378018664,-187500.02235174447,-39384.980724451634,-28020.683291039863,51348.751944154734,70102.37963227983,106639.72576138088,48776.312026537904,80678.33103875292,35475.1241773515,-7061.474867042884,19922.93684756003,49543.222730543945,25680.925033202773,-16296.56747538656,-53095.719587292624,-0.066,0.908,0.444,192.0,0.0,0.0,0.0,0.0,0.0,0.0,0.0,0.0,0.0,1695412754.347039,0.0,2023-09-22 14:59:14.347
136.0,-166682.7475050387,-187500.02235174447,-39483.32840005498,-28083.60345168155,51341.30881325112,70058.21258523615,106542.6521352115,48715.78350255293,80663.0871490344,35484.243689089264,-7067.1075066456215,19920.969894047965,49521.94386982249,25673.41484706579,-16305.172897001852,-53050.90433965973,-0.066,0.908,0.444,192.0,0.0,0.0,0.0,0.0,0.0,0.0,0.0,0.0,0.0,1695412754.406376,0.0,2023-09-22 14:59:14.406
138.0,-166646.22475459872,-187500.02235174447,-39381.15857614977,-28032.395605134443,51353.71403142381,70093.9977281091,106634.22723224488,48765.203209543615,80685.05891383397,35473.268982561705,-7067.085154901166,19920.0534725253,49525.25192800188,25673.41484706579,-16296.947455042298,-53071.55735153644,-0.066,0.906,0.444,192.0,126.5,120.0,14.0,40.0,6.5,112.0,0.0,0.0,0.0,1695412754.406408,0.0,2023-09-22 14:59:14.406
140.0,-166741.9572761008,-187500.02235174447,-39487.77639720159,-28109.66558571644,51337.73253413827,70036.41963439222,106529.6434199385,48694.45993834257,80666.75283512508,35477.98520064178,-7069.610902024616,19916.56660039027,49525.05076230178,25666.686971984745,-16308.033920292131,-53035.66044994121,-0.066,0.906,0.444,192.0,0.0,0.0,0.0,0.0,0.0,0.0,0.0,0.0,0.0,1695412754.406411,0.0,2023-09-22 14:59:14.406
142.0,-166708.11673499548,-187500.02235174447,-39384.75720700708,-28057.898945557947,51351.009470344725,70082.4865797146,106639.50224393634,48756.39662222823,80663.51183217905,35459.94734286635,-7060.267872842297,19929.999998807907,49504.353046936165,25680.299184358024,-16303.787088845622,-53093.19384016917,-0.066,0.906,0.444,192.0,0.0,0.0,0.0,0.0,0.0,0.0,0.0,0.0,0.0,1695412754.406415,0.0,2023-09-22 14:59:14.406
144.0,-166762.83380542207,-187500.02235174447,-39447.252684504114,-28096.388649509987,51338.11251379401,70053.71988460064,106540.3499055326,48723.24898520101,80668.7421403816,35480.75681695424,-7068.87329445759,19908.430565408536,49545.05557358928,25658.01449513608,-16314.784147117633,-53012.951077574624,-0.066,0.906,0.444,192.0,0.0,0.0,0.0,0.0,0.0,0.0,0.0,0.0,0.0,1695412754.406418,0.0,2023-09-22 14:59:14.406
146.0,-166750.62975294946,-187500.02235174447,-39375.21301212466,-28066.482015428785,51351.23298778928,70080.89960585829,106629.8686420761,48761.98455834205,80670.95496308267,35440.68013914587,-7064.939387433456,19905.83776305172,49499.70388408946,25656.98631489114,-16311.6996063828,-53066.505857289536,-0.066,0.906,0.444,192.0,0.0,0.0,0.0,0.0,0.0,0.0,0.0,0.0,0.0,1695412754.406421,0.0,2023-09-22 14:59:14.406
148.0,-166797.38960234995,-187500.02235174447,-39418.73185857914,-28092.07476283011,51324.41089444291,70057.29616371349,106536.3489432751,48734.424857428654,80692.65850694878,35470.22914531579,-7072.11429740361,19896.8970652696,49548.63185270213,25647.3527130309,-16330.653885680902,-52999.31651345688,-0.066,0.906,0.44,192.0,126.5,120.0,14.0,40.0,6.5,96.0,0.0,0.0,0.0,1695412754.406425,0.0,2023-09-22 14:59:14.406
150.0,-166816.74621304826,-187500.02235174447,-39377.98462843712,-28080.36244873553,51348.32726101008,70065.3874952063,106614.42358665747,48752.73093613755,80679.94036435371,35434.756926865215,-7064.537056033261,19904.943693273508,49487.34336940567,25654.684085212244,-16321.310856498583,-53056.581682751385,-0.066,0.906,0.44,192.0,0.0,0.0,0.0,0.0,0.0,0.0,0.0,0.0,0.0,1695412754.406428,0.0,2023-09-22 14:59:14.406
152.0,-166863.05902755965,-187500.02235174447,-39412.29455617601,-28108.12331534902,51327.42837994437,70049.36129443184,106540.90869914398,48732.99434578352,80705.71192571067,35466.40699701393,-7058.949119919434,19910.889257298622,49551.82815215924,25656.583983490946,-16322.450795465804,-52993.23683896504,-0.066,0.906,0.44,192.0,0.0,0.0,0.0,0.0,0.0,0.0,0.0,0.0,0.0,1695412754.467548,0.0,2023-09-22 14:59:14.467
154.0,-166901.6381384895,-187500.02235174447,-39400.09050370342,-28115.90172241947,51349.28838602166,70051.283544455,106611.5625633672,48738.917558064175,80666.8422421029,35429.236045984755,-7053.495294272339,19923.76386210488,49480.97312223591,25664.675314983764,-16308.212734247772,-53060.26972058651,-0.066,0.906,0.44,192.0,0.0,0.0,0.0,0.0,0.0,0.0,0.0,0.0,0.0,1695412754.46757,0.0,2023-09-22 14:59:14.467
156.0,-166946.92277275596,-187500.02235174447,-39417.74838182311,-28138.476984319328,51334.55858642561,70039.10184372686,106549.4470655259,48717.61634559827,80696.7488761841,35459.81323239961,-7062.592454265649,19911.291588698816,49559.51715225186,25664.675314983764,-16310.202039504296,-53002.80338559191,-0.066,0.906,0.44,192.0,0.0,0.0,0.0,0.0,0.0,0.0,0.0,0.0,0.0,1695412754.467574,0.0,2023-09-22 14:59:14.467
158.0,-166970.54856664522,-187500.02235174447,-39396.24600365711,-28128.53045803672,51349.93658661087,70056.20092823516,106609.84147904416,48740.52688366496,80657.14158500929,35425.90563606091,-7064.201779866431,19909.726966586943,49482.51539260333,25663.84830043892,-16305.75404235769,-53071.95968293664,-0.066,0.904,0.44,192.0,126.5,120.0,14.0,32.0,6.5,96.0,0.0,0.0,0.0,1695412754.467578,0.0,2023-09-22 14:59:14.467
160.0,-166965.11709274258,-187500.02235174447,-39360.50556427307,-28110.85022817257,51328.25539448922,70069.56727141944,106556.04083014022,48757.93889259564,80706.38247804434,35476.1747093409,-7075.936445705467,19894.237207679416,49575.96803617097,25653.00770437809,-16319.008626819686,-52963.91135023968,-0.066,0.904,0.44,192.0,0.0,0.0,0.0,0.0,0.0,0.0,0.0,0.0,0.0,1695412754.467581,0.0,2023-09-22 14:59:14.467
162.0,-167051.05955017323,-187500.02235174447,-39409.05355323,-28161.722798552848,51356.26213029172,70042.8792885398,106583.44406884242,48717.70575257609,80660.56140191095,35429.996005296234,-7061.5866257651605,19911.89508579911,49471.94301747597,25671.134969131348,-16306.379891202438,-53042.321269788896,-0.066,0.904,0.44,192.0,0.0,0.0,0.0,0.0,0.0,0.0,0.0,0.0,0.0,1695412754.467584,0.0,2023-09-22 14:59:14.467
164.0,-167043.21408786942,-187500.02235174447,-39356.2363810821,-28135.21362962885,51335.20678701482,70067.17563476272,106572.64817627052,48745.04193604493,80700.12398959685,35470.02797961569,-7068.202742123931,19907.357681674683,49570.4024518016,25674.55478603301,-16310.917295326864,-52982.28448418194,-0.066,0.904,0.44,192.0,0.0,0.0,0.0,0.0,0.0,0.0,0.0,0.0,0.0,1695412754.467588,0.0,2023-09-22 14:59:14.467
166.0,-167121.46754520744,-187500.02235174447,-39410.70758231969,-28179.157159227987,51349.64601393295,70044.48861414059,106581.03008044124,48712.92247926265,80655.12992800832,35434.04167104264,-7056.557483262716,19919.18175449154,49476.86040125613,25682.824931481475,-16308.413899947873,-53046.657508213226,-0.066,0.904,0.44,192.0,0.0,0.0,0.0,0.0,0.0,0.0,0.0,0.0,0.0,1695412754.526371,0.0,2023-09-22 14:59:14.526
168.0,-167081.07794297673,-187500.02235174447,-39321.79234287648,-28128.686920247907,51339.45361846133,70085.3923064938,106581.8123914972,48761.76104089749,80705.04137337701,35474.74419769576,-7066.571064778694,19911.828030565743,49576.16920187107,25675.828835466964,-16318.516888441667,-52972.67323406616,-0.072,0.902,0.44,192.0,126.5,96.0,14.0,24.0,6.5,96.0,0.0,0.0,0.0,1695412754.526378,0.0,2023-09-22 14:59:14.526
170.0,-167136.7561384149,-187500.02235174447,-39370.02740741103,-28157.00658047278,51346.22619703129,70067.6897248852,106561.47230404288,48740.12455226476,80649.98902678359,35450.55961019512,-7059.329099575174,19923.36153070468,49486.29283741627,25676.18646337825,-16318.56159193058,-53010.04535079544,-0.072,0.902,0.44,192.0,0.0,0.0,0.0,0.0,0.0,0.0,0.0,0.0,0.0,1695412754.526382,0.0,2023-09-22 14:59:14.526
172.0,-167087.24702444638,-187500.02235174447,-39265.13067068227,-28098.355603022053,51337.240795760255,70103.47486775814,106575.03981292724,48787.8678784213,80706.11425711086,35488.02113390221,-7070.795544480747,19911.6492166101,49574.55987627028,25664.630611494853,-16331.771472903669,-52927.07567537733,-0.072,0.902,0.44,192.0,0.0,0.0,0.0,0.0,0.0,0.0,0.0,0.0,0.0,1695412754.526386,0.0,2023-09-22 14:59:14.526
174.0,-167203.1631711916,-187500.02235174447,-39379.16927089325,-28183.180473229942,51351.72472616729,70041.56053561694,106530.31397227215,48710.530842605935,80671.8937363498,35451.36427299551,-7051.885968671557,19917.684187613035,49492.46191888594,25670.24089935313,-16322.13787104343,-52975.71307131208,-0.072,0.902,0.44,192.0,0.0,0.0,0.0,0.0,0.0,0.0,0.0,0.0,0.0,1695412754.526389,0.0,2023-09-22 14:59:14.526
176.0,-167141.8523361507,-187500.02235174447,-39251.00436818652,-28105.955196136856,51343.47693246329,70102.4466875132,106573.36343209309,48787.80082318793,80702.35916404238,35476.621744230004,-7069.968529935901,19905.61424560717,49562.73580345343,25668.69862898572,-16324.104824555496,-52950.96969020006,-0.072,0.902,0.44,192.0,0.0,0.0,0.0,0.0,0.0,0.0,0.0,0.0,0.0,1695412754.526393,0.0,2023-09-22 14:59:14.526
178.0,-167254.72864565,-187500.02235174447,-39366.33936957591,-28188.611947132584,51354.74221166876,70045.13681472979,106510.1974022624,48714.1965286966,80648.17853548272,35460.327322522084,-7059.038526897255,19915.31490270077,49498.74275907788,25675.24769011113,-16315.097071540007,-52964.13486768423,-0.074,0.906,0.444,192.0,126.5,88.0,14.0,40.0,6.5,112.0,0.0,0.0,0.0,1695412754.526396,0.0,2023-09-22 14:59:14.526
180.0,-167170.9990109204,-187500.02235174447,-39216.64973695872,-28091.158341307444,51349.198979043846,70112.70613821819,106593.43529861394,48811.20309963264,80694.98308837213,35470.67618020489,-7079.244503884853,19893.03021347883,49554.823285916245,25655.578154990453,-16322.584905932536,-52939.72676273904,-0.074,0.906,0.444,192.0,0.0,0.0,0.0,0.0,0.0,0.0,0.0,0.0,0.0,1695412754.5264,0.0,2023-09-22 14:59:14.526
182.0,-167279.09204710627,-187500.02235174447,-39342.13243033081,-28179.04540050571,51355.345708769055,70046.54497463048,106516.65705640995,48730.11097074879,80664.67412289073,35460.79670915565,-7064.917035689001,19910.75514683189,49514.27722147432,25665.27881208406,-16306.290484224615,-52929.75788471197,-0.074,0.906,0.444,192.0,0.0,0.0,0.0,0.0,0.0,0.0,0.0,0.0,0.0,1695412754.586779,0.0,2023-09-22 14:59:14.586
184.0,-167243.3292559778,-187500.02235174447,-39247.98688268505,-28138.85696397507,51369.15908684243,70077.56919593444,106606.9581040094,48773.83098290336,80700.32515529695,35455.00760734172,-7068.605073524127,19908.56467587527,49542.28395727682,25666.575213262466,-16297.103917253486,-52947.90750120968,-0.074,0.906,0.444,192.0,0.0,0.0,0.0,0.0,0.0,0.0,0.0,0.0,0.0,1695412754.586785,0.0,2023-09-22 14:59:14.586
186.0,-167325.98600697352,-187500.02235174447,-39347.89918040028,-28205.7557351298,51360.59836871605,70039.68298908269,106529.1963850494,48718.35395316529,80687.67406793524,35454.44881373034,-7064.000614166333,19913.526763144346,49527.55415768077,25673.83953021044,-16283.8940362804,-52942.16310288467,-0.074,0.906,0.444,192.0,0.0,0.0,0.0,0.0,0.0,0.0,0.0,0.0,0.0,1695412754.586788,0.0,2023-09-22 14:59:14.586
188.0,-167271.42539875812,-187500.02235174447,-39231.89362667724,-28141.785042498715,51369.315549053616,70093.08130658642,106627.05232227471,48788.5160790105,80698.2911465515,35448.05621481612,-7073.365995093107,19908.430565408536,49527.218881513945,25678.84632096843,-16277.926120510832,-52967.06294620788,-0.078,0.902,0.438,192.0,126.5,72.0,14.0,24.0,6.5,88.0,0.0,0.0,0.0,1695412754.586792,0.0,2023-09-22 14:59:14.586
190.0,-167363.4475306806,-187500.02235174447,-39341.55128497497,-28220.19496204793,51363.81701991762,70040.73352107209,106533.59967870708,48719.42683689915,80671.13377703831,35466.719921436306,-7071.443745069951,19916.23132422344,49535.19845428449,25682.824931481475,-16268.717201795243,-52930.71900972355,-0.078,0.902,0.438,192.0,0.0,0.0,0.0,0.0,0.0,0.0,0.0,0.0,0.0,1695412754.5868,0.0,2023-09-22 14:59:14.586
192.0,-167338.86061177976,-187500.02235174447,-39259.27451363498,-28183.895729052518,51381.6760637374,70080.07259131344,106636.0153718013,48766.007872344,80670.66439040475,35446.80451712663,-7065.58758802266,19914.778460833844,49516.84767208668,25690.98331820766,-16255.8873004779,-52990.77814707496,-0.078,0.902,0.438,192.0,0.0,0.0,0.0,0.0,0.0,0.0,0.0,0.0,0.0,1695412754.586805,0.0,2023-09-22 14:59:14.586
194.0,-167387.94504260362,-187500.02235174447,-39324.1839795332,-28225.3135115282,51353.44581049035,70053.94340204519,106541.82512066665,48734.17898823965,80685.79652140099,35468.999799370744,-7065.475829300383,19910.1516497316,49555.80676267228,25683.60724253741,-16260.514111580149,-52939.61500401676,-0.078,0.902,0.438,192.0,0.0,0.0,0.0,0.0,0.0,0.0,0.0,0.0,0.0,1695412754.586808,0.0,2023-09-22 14:59:14.586
196.0,-167373.7069813856,-187500.02235174447,-39255.20649614412,-28192.881130323545,51370.47783976529,70084.40882973776,106630.9191740655,48776.15556432671,80667.62455315884,35439.69666238983,-7072.15900089252,19906.307149685283,49504.59891612517,25678.55574829051,-16265.163274426852,-52985.88311503924,-0.078,0.902,0.438,192.0,0.0,0.0,0.0,0.0,0.0,0.0,0.0,0.0,0.0,1695412754.648442,0.0,2023-09-22 14:59:14.648
198.0,-167399.1209148313,-187500.02235174447,-39283.5708598579,-28205.420458962973,51336.50318819323,70072.87532959883,106541.62395496656,48763.77269789847,80693.41846626025,35470.00562787124,-7082.709024275426,19891.59970183369,49557.19257082851,25666.08347488445,-16279.848370533988,-52905.50624197797,-0.078,0.902,0.434,192.0,126.5,72.0,14.0,24.0,6.5,72.0,0.0,0.0,0.0,1695412754.648451,0.0,2023-09-22 14:59:14.648
200.0,-167429.7651564795,-187500.02235174447,-39263.119013681295,-28215.277578267764,51363.63820596197,70071.22130050913,106610.9590662669,48759.14588679623,80661.47782343363,35431.82884834157,-7073.656567771026,19903.915513028565,49484.83997402668,25671.29143134253,-16272.7405157972,-52973.76846954447,-0.078,0.902,0.434,192.0,0.0,0.0,0.0,0.0,0.0,0.0,0.0,0.0,0.0,1695412754.648454,0.0,2023-09-22 14:59:14.648
202.0,-167439.4658135731,-187500.02235174447,-39265.80122301594,-28215.076412567665,51338.291327749655,70073.23295751012,106543.1438735895,48757.24598851753,80689.95394586968,35475.302991307144,-7080.87618123009,19898.23816993692,49561.17118134155,25668.966849919183,-16284.385774658416,-52904.16513731064,-0.078,0.902,0.434,192.0,0.0,0.0,0.0,0.0,0.0,0.0,0.0,0.0,0.0,1695412754.648458,0.0,2023-09-22 14:59:14.648
204.0,-167452.38512186828,-187500.02235174447,-39235.00051915652,-28204.124057784567,51361.0230518607,70082.15130354778,106609.48385113286,48772.9145613807,80660.65080888878,35440.03193855667,-7079.110393418121,19899.914550771064,49479.542610590775,25673.236033110148,-16281.390640901403,-52955.75296351349,-0.078,0.902,0.434,192.0,0.0,0.0,0.0,0.0,0.0,0.0,0.0,0.0,0.0,1695412754.648461,0.0,2023-09-22 14:59:14.648
206.0,-167476.50265413555,-187500.02235174447,-39237.10158313532,-28213.131810800056,51337.91134809391,70071.08719004241,106546.47428351337,48761.96220659759,80692.1444168263,35474.00659012873,-7085.458288843428,19895.31009141327,49556.61142547267,25661.30020157101,-16289.7948968166,-52878.75120386496,-0.078,0.902,0.434,192.0,0.0,0.0,0.0,0.0,0.0,0.0,0.0,0.0,0.0,1695412754.648465,0.0,2023-09-22 14:59:14.648
208.0,-167555.27020159605,-187500.02235174447,-39275.211307431615,-28258.796424722248,51352.21646454531,70040.08532048289,106583.7122897759,48729.28395620394,80653.25238147407,35425.50330466071,-7072.293111359252,19906.7988880633,49460.81184873723,25665.6587917398,-16286.50919038167,-52964.514847339975,-0.068,0.904,0.442,192.0,126.5,112.0,14.0,32.0,6.5,104.0,0.0,0.0,0.0,1695412754.648468,0.0,2023-09-22 14:59:14.648
210.0,-167511.3937272303,-187500.02235174447,-39201.51760596247,-28207.8567991086,51337.933699838366,70085.68287917171,106574.3022053602,48776.91552363819,80695.25130930559,35474.252459317744,-7086.531172577283,19894.57248384625,49559.47244876295,25661.836643437942,-16298.243856220706,-52893.81627962784,-0.068,0.904,0.442,192.0,0.0,0.0,0.0,0.0,0.0,0.0,0.0,0.0,0.0,1695412754.648472,0.0,2023-09-22 14:59:14.648
212.0,-167555.42666380724,-187500.02235174447,-39224.09286786233,-28224.35238651662,51353.42345874589,70075.4904837001,106591.87067650208,48764.66676767669,80639.72957607861,35452.88419161847,-7089.660416801026,19895.31009141327,49470.87013374212,25673.481902299158,-16289.683138094324,-52923.29823056439,-0.068,0.904,0.442,192.0,0.0,0.0,0.0,0.0,0.0,0.0,0.0,0.0,0.0,1695412754.706407,0.0,2023-09-22 14:59:14.706
214.0,-167573.17394890476,-187500.02235174447,-39186.11725403276,-28212.125982299567,51341.129999295474,70082.6430419258,106567.64138551251,48769.31593052339,80686.69059117921,35498.90643345194,-7090.442727856962,19898.685204826023,49548.9447771245,25677.75108549012,-16297.439193420316,-52862.41207866813,-0.068,0.904,0.442,192.0,0.0,0.0,0.0,0.0,0.0,0.0,0.0,0.0,0.0,1695412754.706418,0.0,2023-09-22 14:59:14.706
216.0,-167680.0376391456,-187500.02235174447,-39261.95672296962,-28269.48055857188,51357.33501402557,70048.89190779829,106573.74341174884,48721.12556947775,80635.37098590983,35468.619819715,-7079.043338184755,19915.583123634235,49454.88863645657,25690.93861471875,-16285.302196181085,-52942.85600696278,-0.068,0.904,0.442,192.0,0.0,0.0,0.0,0.0,0.0,0.0,0.0,0.0,0.0,1695412754.706422,0.0,2023-09-22 14:59:14.706
218.0,-167635.89294384635,-187500.02235174447,-39156.97057926304,-28202.604139161605,51342.4711039628,70105.48652475912,106599.44791787244,48786.03503537596,80684.67893417823,35512.16101791394,-7083.916018476012,19914.46553641147,49551.82815215924,25689.68691702925,-16282.50822812417,-52895.716177906535,-0.068,0.908,0.45,192.0,126.5,112.0,14.0,48.0,7.0,8.0,0.0,0.0,0.0,1695412754.706425,0.0,2023-09-22 14:59:14.706
220.0,-167734.84411655,-187500.02235174447,-39250.557333297416,-28267.20068063744,51359.681947193385,70056.62561137982,106557.51604527429,48726.04295325792,80636.64503534378,35489.0269624027,-7075.757631749825,19921.03694928133,49478.24620941236,25689.776324007074,-16277.769658299643,-52909.55190772437,-0.068,0.908,0.45,192.0,0.0,0.0,0.0,0.0,0.0,0.0,0.0,0.0,0.0,1695412754.706428,0.0,2023-09-22 14:59:14.706
222.0,-167688.03956366057,-187500.02235174447,-39144.05127096787,-28208.527351442262,51351.81413314511,70101.99965262409,106600.76667079527,48783.12930859677,80694.84897790539,35510.77520975771,-7076.606998039127,19921.50633591489,49557.63960571762,25692.816161252995,-16274.685117564812,-52885.233209757,-0.068,0.908,0.45,192.0,0.0,0.0,0.0,0.0,0.0,0.0,0.0,0.0,0.0,1695412754.706432,0.0,2023-09-22 14:59:14.706
224.0,-167795.03736436812,-187500.02235174447,-39252.97132169859,-28289.775942537304,51363.63820596197,70047.30493394195,106552.17397834946,48715.93996476412,80661.81309960045,35488.6246310025,-7057.697422229937,19932.36928372017,49489.9808752514,25691.20683565221,-16269.074829706531,-52920.83953867431,-0.068,0.908,0.45,192.0,0.0,0.0,0.0,0.0,0.0,0.0,0.0,0.0,0.0,1695412754.706435,0.0,2023-09-22 14:59:14.706
226.0,-167751.87614582494,-187500.02235174447,-39146.12998320222,-28234.410671521506,51357.223255303295,70091.18140830772,106599.22440042788,48773.294541036434,80706.33777455542,35504.04733467667,-7069.879122958079,19918.310036457784,49556.11968709465,25682.22143438118,-16273.83575127551,-52899.47127097503,-0.068,0.908,0.45,192.0,0.0,0.0,0.0,0.0,0.0,0.0,0.0,0.0,0.0,1695412754.766241,0.0,2023-09-22 14:59:14.766
228.0,-167832.49888807524,-187500.02235174447,-39233.90528367821,-28285.70792504644,51351.16593255591,70060.47011142613,106548.37418179204,48731.29561320492,80655.21933498613,35485.361276312025,-7069.275625857786,19922.668626626568,49502.07316900172,25689.84337924044,-16273.679289064325,-52925.37694279873,-0.072,0.908,0.446,192.0,126.5,96.0,14.0,48.0,6.5,120.0,0.0,0.0,0.0,1695412754.766252,0.0,2023-09-22 14:59:14.766
230.0,-167790.9022916439,-187500.02235174447,-39128.002718448966,-28222.43013649346,51355.122191324495,70101.10558284588,106608.6121330991,48784.06808186389,80677.77224514155,35491.999744415254,-7089.25808540083,19905.61424560717,49539.69115492,25681.349716347424,-16290.46544915026,-52895.00092208397,-0.072,0.908,0.446,192.0,0.0,0.0,0.0,0.0,0.0,0.0,0.0,0.0,0.0,1695412754.766256,0.0,2023-09-22 14:59:14.766
232.0,-167884.66785963392,-187500.02235174447,-39233.30178657792,-28285.819683768717,51345.77916214218,70056.62561137982,106528.74935016027,48720.522072377455,80650.79368958398,35484.44485478936,-7082.619617297604,19911.023367765352,49505.42593067002,25693.57612056448,-16292.99119627371,-52901.728797165015,-0.072,0.908,0.446,192.0,0.0,0.0,0.0,0.0,0.0,0.0,0.0,0.0,0.0,1695412754.766259,0.0,2023-09-22 14:59:14.766
234.0,-167825.63690252745,-187500.02235174447,-39108.10966588374,-28210.986043332345,51350.65184243344,70112.68378647373,106612.34487442314,48794.86397443581,80670.61968691584,35484.176633855895,-7092.655550558037,19898.17111470355,49528.4929309479,25691.028021696573,-16305.016434790665,-52908.92605887962,-0.072,0.908,0.446,192.0,0.0,0.0,0.0,0.0,0.0,0.0,0.0,0.0,0.0,1695412754.766262,0.0,2023-09-22 14:59:14.766
236.0,-167899.79999063016,-187500.02235174447,-39201.29408851792,-28269.3240963607,51335.16208352591,70065.20868125066,106513.30429474168,48734.82718882885,80661.00843680005,35501.96862244232,-7088.274608644797,19905.636597351622,49524.15669252357,25694.40313510932,-16313.197173261307,-52868.33529094879,-0.072,0.908,0.446,192.0,0.0,0.0,0.0,0.0,0.0,0.0,0.0,0.0,0.0,1695412754.766265,0.0,2023-09-22 14:59:14.766
238.0,-167850.04500747265,-187500.02235174447,-39095.65974422214,-28208.348537486618,51339.81124637261,70103.56427473597,106601.92896150696,48793.47816627958,80663.80240485698,35489.898680436454,-7095.941256992967,19904.04962349529,49514.56779415224,25692.905568230817,-16317.309894241083,-52897.526669207415,-0.076,0.904,0.444,192.0,126.5,80.0,14.0,32.0,6.5,112.0,0.0,0.0,0.0,1695412754.766269,0.0,2023-09-22 14:59:14.766
240.0,-167964.03890419472,-187500.02235174447,-39219.80133292691,-28305.44451540047,51329.35062996753,70033.93859075768,106497.72512885631,48702.7971390244,80655.10757626386,35502.147436397965,-7080.049166685244,19919.09234751372,49517.920555820536,25706.74129804865,-16309.442080192815,-52879.39940445416,-0.076,0.904,0.444,192.0,0.0,0.0,0.0,0.0,0.0,0.0,0.0,0.0,0.0,1695412754.766272,0.0,2023-09-22 14:59:14.766
242.0,-167922.5317147412,-187500.02235174447,-39115.44103806508,-28246.01122689381,51346.60617668703,70090.06382108496,106614.40123491302,48772.24400904703,80667.17751826973,35487.797616457654,-7081.569085308205,19919.47232716946,49495.389997409584,25707.23303642667,-16304.65880687938,-52940.55377728389,-0.076,0.904,0.444,192.0,0.0,0.0,0.0,0.0,0.0,0.0,0.0,0.0,0.0,1695412754.82652,0.0,2023-09-22 14:59:14.826
244.0,-167944.12349988503,-187500.02235174447,-39147.761660547454,-28257.723540988394,51328.993002056246,70081.41369598075,106522.69202741292,48759.57056994088,80677.63813467481,35522.95691048585,-7092.633198813582,19907.51414388587,49551.53757948132,25692.65969904181,-16315.36529247347,-52843.74837204795,-0.076,0.904,0.444,192.0,0.0,0.0,0.0,0.0,0.0,0.0,0.0,0.0,0.0,1695412754.82653,0.0,2023-09-22 14:59:14.826
246.0,-167925.6833107094,-187500.02235174447,-39079.968819614514,-28221.737232415348,51352.060002334125,70109.1969143387,106608.67918833246,48796.76387271451,80654.92876230822,35493.631421760496,-7087.134669677576,19908.94465553101,49495.09942473166,25696.90653048832,-16303.429460934338,-52886.32844523531,-0.076,0.904,0.444,192.0,0.0,0.0,0.0,0.0,0.0,0.0,0.0,0.0,0.0,1695412754.826534,0.0,2023-09-22 14:59:14.826
248.0,-167979.5957183356,-187500.02235174447,-39133.724765029525,-28261.50098580134,51339.58772892806,70074.95404183317,106522.42380647943,48753.22267451557,80680.3426957539,35524.02979421971,-7085.905323732534,19906.7988880633,49550.59880621419,25700.34869913444,-16302.311873711573,-52814.02055192239,-0.076,0.906,0.436,192.0,126.5,80.0,14.0,40.0,6.5,80.0,0.0,0.0,0.0,1695412754.826537,0.0,2023-09-22 14:59:14.826
250.0,-167990.81629405217,-187500.02235174447,-39097.31377331183,-28246.01122689381,51361.4700867498,70092.70132693069,106616.70346459192,48774.70270093712,80652.71593960714,35477.180537841385,-7069.566198535705,19922.959199304485,49481.91189550304,25703.567350336,-16285.905693281376,-52907.69671293458,-0.076,0.906,0.436,192.0,0.0,0.0,0.0,0.0,0.0,0.0,0.0,0.0,0.0,1695412754.82654,0.0,2023-09-22 14:59:14.826
252.0,-167996.82891331066,-187500.02235174447,-39096.06207562233,-28243.418424536994,51337.643127160445,70087.35926000586,106547.65892596947,48774.32272128138,80688.76930341356,35519.09005869509,-7083.670149287003,19909.27993169784,49569.30721632329,25684.456608826717,-16299.204981232284,-52813.43940656656,-0.076,0.906,0.436,192.0,0.0,0.0,0.0,0.0,0.0,0.0,0.0,0.0,0.0,1695412754.826543,0.0,2023-09-22 14:59:14.826
254.0,-168036.23503878535,-187500.02235174447,-39101.918232669625,-28261.031599167774,51364.73344144028,70074.37289647733,106601.48192661784,48764.26443627649,80653.47589891862,35472.97840988379,-7074.997672438344,19915.739585845426,49478.492078601375,25688.189350150747,-16292.231236962229,-52887.200163269066,-0.076,0.906,0.436,192.0,0.0,0.0,0.0,0.0,0.0,0.0,0.0,0.0,0.0,1695412754.826547,0.0,2023-09-22 14:59:14.826
0.0,-168023.18162002345,-187500.02235174447,-39071.13988055466,-28240.57975299117,51338.49249344976,70087.91805361725,106560.28766158671,48781.00589287352,80694.53605348303,35510.23876789078,-7080.227980640886,19912.14095498812,49570.201286101495,25683.428428581767,-16299.51790565466,-52818.93793570256,-0.076,0.906,0.436,192.0,0.0,0.0,0.0,0.0,0.0,0.0,0.0,0.0,0.0,1695412754.886714,0.0,2023-09-22 14:59:14.886
2.0,-168062.99007689836,-187500.02235174447,-39088.708351696536,-28256.49419504335,51358.00556635924,70076.22809126713,106591.82597301315,48767.17016305568,80646.21158197065,35477.26994481921,-7076.428184083484,19917.30420795729,49482.29187515878,25695.498370587637,-16297.03686202012,-52873.476192173504,-0.072,0.906,0.44,192.0,126.5,96.0,14.0,40.0,6.5,96.0,0.0,0.0,0.0,1695412754.886727,0.0,2023-09-22 14:59:14.886
4.0,-168051.97066688188,-187500.02235174447,-39051.55975241181,-28235.88588665556,51341.30881325112,70090.51085597406,106561.76287672078,48781.140003340246,80694.37959127183,35507.91418646743,-7081.658492286026,19908.74348983091,49566.513248266376,25694.313728131503,-16304.61410339047,-52811.38304607666,-0.072,0.906,0.44,192.0,0.0,0.0,0.0,0.0,0.0,0.0,0.0,0.0,0.0,1695412754.88673,0.0,2023-09-22 14:59:14.886
6.0,-168147.16674651703,-187500.02235174447,-39131.04255569489,-28300.415372898027,51364.73344144028,70050.38947467679,106572.96110069288,48725.64062185772,80642.32237843542,35460.34967426654,-7068.202742123931,19919.15940274709,49468.277331385296,25710.80931553952,-16292.722975340246,-52899.73949190849,-0.072,0.906,0.44,192.0,0.0,0.0,0.0,0.0,0.0,0.0,0.0,0.0,0.0,1695412754.886733,0.0,2023-09-22 14:59:14.886
8.0,-168088.7839899998,-187500.02235174447,-39029.6103393567,-28228.286293540757,51335.63147015947,70105.01713812556,106576.33621410564,48794.349884313335,80694.8936813943,35500.91809045292,-7086.285303388275,19905.480135140435,49574.93985592602,25694.872521742884,-16309.553838915092,-52843.63661332568,-0.072,0.906,0.44,192.0,0.0,0.0,0.0,0.0,0.0,0.0,0.0,0.0,0.0,1695412754.886737,0.0,2023-09-22 14:59:14.886
10.0,-168168.33384851622,-187500.02235174447,-39107.23794784999,-28279.874119743603,51347.67906042088,70066.99682080708,106554.92324291746,48749.24406400252,80639.39429991177,35472.30785755013,-7074.640044527059,19916.678359112542,49478.78265127929,25705.55665559252,-16308.19038250332,-52884.07091904532,-0.072,0.906,0.44,192.0,0.0,0.0,0.0,0.0,0.0,0.0,0.0,0.0,0.0,1695412754.88674,0.0,2023-09-22 14:59:14.886
12.0,-168104.00552797384,-187500.02235174447,-38995.09924591771,-28206.068659552177,51337.33020273808,70119.5010685326,106582.14766766402,48816.00872469053,80683.13666381082,35512.78686675869,-7088.743995278358,19904.85428629569,49570.17893435704,25695.90070198783,-16316.482879696236,-52822.2683456264,-0.072,0.904,0.438,192.0,126.5,96.0,14.0,32.0,6.5,88.0,0.0,0.0,0.0,1695412754.886743,0.0,2023-09-22 14:59:14.886
14.0,-168217.7535555069,-187500.02235174447,-39110.724819985015,-28288.188968680977,51352.28351977868,70058.65962012525,106548.24007132532,48736.01183128498,80632.50996261954,35477.71697970831,-7063.821800210691,19928.7035976295,49483.00713098134,25713.08919347396,-16297.550952142592,-52872.73858460648,-0.072,0.904,0.438,192.0,0.0,0.0,0.0,0.0,0.0,0.0,0.0,0.0,0.0,1695412754.886746,0.0,2023-09-22 14:59:14.886
16.0,-168178.36978177665,-187500.02235174447,-39014.94759499402,-28232.2649040538,51356.91033088092,70096.61288221036,106605.0582057307,48784.7162824531,80673.57011718395,35503.91322420994,-7071.3319863476745,19923.47328942696,49553.37042252665,25710.250521928137,-16299.897885310398,-52853.47138088601,-0.072,0.904,0.438,192.0,0.0,0.0,0.0,0.0,0.0,0.0,0.0,0.0,0.0,1695412754.947046,0.0,2023-09-22 14:59:14.947
18.0,-168241.28994241834,-187500.02235174447,-39093.49162500997,-28270.28522137228,51349.40014474394,70070.95307957567,106548.5529957477,48748.86408434679,80646.92683779322,35503.66735502092,-7071.3319863476745,19926.446071439517,49502.34138993519,25707.858885271417,-16303.384757445428,-52859.19342746657,-0.072,0.904,0.438,192.0,0.0,0.0,0.0,0.0,0.0,0.0,0.0,0.0,0.0,1695412754.947056,0.0,2023-09-22 14:59:14.947
20.0,-168195.75943896288,-187500.02235174447,-38992.28292611634,-28216.193999790437,51349.2213307883,70107.60994048238,106604.52176386378,48799.580192515874,80675.02298057354,35516.13962842699,-7074.371823593596,19921.84161208172,49549.50357073589,25705.020213725595,-16302.51303941167,-52842.89900575865,-0.072,0.904,0.438,192.0,0.0,0.0,0.0,0.0,0.0,0.0,0.0,0.0,0.0,1695412754.94706,0.0,2023-09-22 14:59:14.947
22.0,-168299.11390532422,-187500.02235174447,-39112.043572907874,-28295.252119928853,51353.75873491273,70046.36616067484,106534.42669325194,48723.47250264556,80652.47007041813,35502.86269222054,-7057.809180952214,19932.101062786707,49507.705808604456,25707.99299573815,-16292.56651312906,-52864.691956602575,-0.074,0.904,0.438,192.0,126.5,88.0,14.0,32.0,6.5,88.0,0.0,0.0,0.0,1695412754.947067,0.0,2023-09-22 14:59:14.947
24.0,-168224.52613407685,-187500.02235174447,-38976.97198116445,-28209.77904913176,51357.55853147013,70104.72656544764,106620.50326114932,48805.83868096336,80690.04335284751,35503.60029978756,-7069.052108413232,19919.69584461401,49551.53757948132,25697.152399677325,-16296.634530619924,-52861.227436212,-0.074,0.904,0.438,192.0,0.0,0.0,0.0,0.0,0.0,0.0,0.0,0.0,0.0,1695412754.94707,0.0,2023-09-22 14:59:14.947
26.0,-168321.55505675735,-187500.02235174447,-39093.49162500997,-28287.004326224844,51351.65767093393,70045.74031183009,106525.70951291436,48730.58035738234,80662.8859833343,35503.91322420994,-7064.2911868442525,19923.20506849349,49523.82141635674,25696.43714385476,-16295.785164330622,-52837.31106964482,-0.074,0.904,0.438,192.0,0.0,0.0,0.0,0.0,0.0,0.0,0.0,0.0,0.0,1695412754.947074,0.0,2023-09-22 14:59:14.947
28.0,-168292.90012036564,-187500.02235174447,-38999.36842910868,-28242.1667268475,51356.373889014,70081.97248959214,106621.57614488318,48775.93204688216,80668.02688455903,35477.26994481921,-7062.056012398722,19916.41013817908,49521.832111100215,25694.760763020608,-16290.443097405803,-52891.15642203765,-0.074,0.904,0.438,192.0,0.0,0.0,0.0,0.0,0.0,0.0,0.0,0.0,0.0,1695412754.947077,0.0,2023-09-22 14:59:14.947
30.0,-168362.97283923303,-187500.02235174447,-39086.54023248437,-28293.10635246114,51335.58676667056,70042.38755016179,106523.00495183528,48722.1984532116,80655.95694255317,35490.36806707002,-7079.44566958495,19901.70269032749,49528.939965837,25682.46730357019,-16305.664635379868,-52850.87857852919,-0.074,0.904,0.438,192.0,0.0,0.0,0.0,0.0,0.0,0.0,0.0,0.0,0.0,1695412755.006485,0.0,2023-09-22 14:59:15.006
32.0,-168320.45982127904,-187500.02235174447,-38990.49478655992,-28238.232819823366,51352.68585117887,70077.77036163454,106614.62475235756,48773.78627941445,80660.65080888878,35472.03963661667,-7089.727472034392,19893.36548964566,49501.93905853499,25682.981393692666,-16313.375987216948,-52887.17781152461,-0.074,0.91,0.444,192.0,126.5,88.0,14.0,56.0,6.5,112.0,0.0,0.0,0.0,1695412755.006496,0.0,2023-09-22 14:59:15.006
34.0,-168374.46163588305,-187500.02235174447,-39065.55194444084,-28281.59520406666,51345.0192028307,70043.95217227367,106530.87276588354,48726.31117419138,80659.71203562165,35483.774302455706,-7091.314445890719,19893.477248367937,49529.61051817066,25671.17967262026,-16314.605333161991,-52843.41309588112,-0.074,0.91,0.444,192.0,0.0,0.0,0.0,0.0,0.0,0.0,0.0,0.0,0.0,1695412755.0065,0.0,2023-09-22 14:59:15.006
36.0,-168337.15657438716,-187500.02235174447,-38978.87187944316,-28228.93449412996,51363.61585421752,70080.69844015819,106620.65972336051,48775.86499164879,80650.34665469488,35448.12327004949,-7090.487431345872,19888.761030287867,49497.40165441056,25681.305012858516,-16310.403205204391,-52892.47517496052,-0.074,0.91,0.444,192.0,0.0,0.0,0.0,0.0,0.0,0.0,0.0,0.0,0.0,1695412755.006503,0.0,2023-09-22 14:59:15.006
38.0,-168377.23325219552,-187500.02235174447,-39027.12929572217,-28256.74006423236,51344.97449934179,70052.0882072554,106520.36744598956,48744.59490115582,80676.58760268541,35485.47303503431,-7097.63998957157,19881.340251128702,49556.72318419495,25672.14079763184,-16324.261286766685,-52804.40930180661,-0.074,0.91,0.444,192.0,0.0,0.0,0.0,0.0,0.0,0.0,0.0,0.0,0.0,1695412755.006507,0.0,2023-09-22 14:59:15.006
40.0,-168408.27982524395,-187500.02235174447,-39004.39757161112,-28261.009247423324,51370.38843278748,70054.27867821201,106610.5120313778,48743.72318312206,80657.3874541983,35436.27684548817,-7078.462192828917,19900.674510082543,49486.181078694,25694.29137638705,-16304.569399901558,-52900.27593377542,-0.074,0.91,0.444,192.0,0.0,0.0,0.0,0.0,0.0,0.0,0.0,0.0,0.0,1695412755.00651,0.0,2023-09-22 14:59:15.006
42.0,-168434.47606974555,-187500.02235174447,-39029.05154574532,-28270.46403532792,51344.5721679416,70050.14360548778,106534.56080371868,48730.46859866007,80688.07639933543,35474.386569784474,-7084.899495232045,19890.191541933007,49563.42870753154,25688.70344027322,-16318.427481463848,-52832.46074109802,-0.074,0.91,0.442,192.0,126.5,88.0,14.0,56.0,6.5,104.0,0.0,0.0,0.0,1695412755.006513,0.0,2023-09-22 14:59:15.006
44.0,-168456.00079965603,-187500.02235174447,-39007.2585949014,-28263.55734629123,51365.56045598513,70059.97837304811,106599.38086263908,48742.53854066593,80664.540012424,35434.98044430977,-7079.311559118219,19900.696861827,49488.058625228245,25698.5158560891,-16312.32545522755,-52899.20305004157,-0.074,0.91,0.442,192.0,0.0,0.0,0.0,0.0,0.0,0.0,0.0,0.0,0.0,1695412755.006518,0.0,2023-09-22 14:59:15.006
46.0,-168429.49163073202,-187500.02235174447,-38975.94380091952,-28230.99085461985,51334.715048636805,70080.27375701354,106535.96896361937,48767.013700844494,80698.00057387359,35475.437101773874,-7091.627370313093,19891.912626256064,49571.609446002185,25681.4614750697,-16330.050388580608,-52809.46079605351,-0.074,0.91,0.442,192.0,0.0,0.0,0.0,0.0,0.0,0.0,0.0,0.0,0.0,1695412755.066363,0.0,2023-09-22 14:59:15.066
48.0,-168470.8200062299,-187500.02235174447,-38991.97000169397,-28251.174479862988,51367.5274094972,70066.41567545125,106578.5043333178,48750.2051890141,80649.67610236122,35436.992101310745,-7073.947140448945,19908.721138086457,49480.61549432463,25693.03967869755,-16318.449833208304,-52868.75997409344,-0.074,0.91,0.442,192.0,0.0,0.0,0.0,0.0,0.0,0.0,0.0,0.0,0.0,1695412755.066374,0.0,2023-09-22 14:59:15.066
50.0,-168492.25532916252,-187500.02235174447,-38993.221699383466,-28260.83043346768,51349.467199977305,70060.02307653702,106544.03794336772,48736.28005221845,80701.6439082198,35472.710188950325,-7070.370861336096,19912.945617788508,49567.250855833394,25699.52168458959,-16311.856068593988,-52820.68137177007,-0.074,0.91,0.442,192.0,0.0,0.0,0.0,0.0,0.0,0.0,0.0,0.0,0.0,1695412755.066377,0.0,2023-09-22 14:59:15.066
52.0,-168517.55750388594,-187500.02235174447,-38996.3062401183,-28257.41061656602,51365.89573215196,70063.2864312275,106594.15055443652,48742.27031973247,80660.94138156669,35444.56934268109,-7070.34850959164,19915.381957934136,49487.38807289459,25701.13101019037,-16311.297274982606,-52887.893067347184,-0.068,0.912,0.446,192.0,126.5,112.0,14.0,64.0,6.5,120.0,0.0,0.0,0.0,1695412755.066381,0.0,2023-09-22 14:59:15.066
54.0,-168472.07170391938,-187500.02235174447,-38927.6863846405,-28207.18624677494,51340.68296440637,70093.66245194226,106569.80950472468,48778.055462605415,80702.2474053201,35494.14551188296,-7081.144402163554,19896.96412050297,49576.7503472269,25692.480885086166,-16320.685007653834,-52800.49774652693,-0.068,0.912,0.446,192.0,0.0,0.0,0.0,0.0,0.0,0.0,0.0,0.0,0.0,1695412755.066384,0.0,2023-09-22 14:59:15.066
56.0,-168561.32221952942,-187500.02235174447,-39012.5559583373,-28272.16276790652,51366.2757118077,70043.16986121773,106564.98152792234,48716.25288918649,80653.16297449624,35452.75008115174,-7068.582721779671,19915.51606840087,49468.85847674114,25703.29912940253,-16311.766661616168,-52867.35181419276,-0.068,0.912,0.446,192.0,0.0,0.0,0.0,0.0,0.0,0.0,0.0,0.0,0.0,1695412755.066387,0.0,2023-09-22 14:59:15.066
58.0,-168515.59055037386,-187500.02235174447,-38929.85450385267,-28217.73627015785,51355.14454306896,70082.8442076259,106580.3595281076,48761.47046821958,80712.97624265865,35490.949212425854,-7072.628387526082,19909.07876599774,49565.172143599055,25703.70146080273,-16313.264228494672,-52821.73190375947,-0.068,0.912,0.446,192.0,0.0,0.0,0.0,0.0,0.0,0.0,0.0,0.0,0.0,1695412755.06639,0.0,2023-09-22 14:59:15.066
60.0,-168576.52140575903,-187500.02235174447,-38994.62985928415,-28254.72840723138,51360.97834837179,70052.51289040004,106557.98543190784,48726.55704338039,80658.59444839889,35461.98135161178,-7071.980186936878,19909.883428798134,49490.56202060724,25698.42644911128,-16313.398338961404,-52857.38293616569,-0.068,0.912,0.446,192.0,0.0,0.0,0.0,0.0,0.0,0.0,0.0,0.0,0.0,1695412755.126554,0.0,2023-09-22 14:59:15.126
62.0,-168539.5739721744,-187500.02235174447,-38914.36474494514,-28209.82375262067,51358.67611869289,70082.15130354778,106583.13114442004,48764.80087814342,80705.3990012883,35481.69559022136,-7073.522457304294,19904.876638040143,49563.27224532035,25696.43714385476,-16316.79580411861,-52816.74746474594,-0.07,0.91,0.45,192.0,126.5,104.0,14.0,56.0,7.0,8.0,0.0,0.0,0.0,1695412755.126567,0.0,2023-09-22 14:59:15.126
64.0,-168616.97806322316,-187500.02235174447,-39004.06229544429,-28261.478634056883,51369.181438586886,70046.38851241929,106552.28573707172,48717.1022554758,80665.94817232469,35452.995950340744,-7067.465134556906,19907.8494200527,49494.98766600939,25703.969681736195,-16310.26909473766,-52858.12054373271,-0.07,0.91,0.45,192.0,0.0,0.0,0.0,0.0,0.0,0.0,0.0,0.0,0.0,1695412755.126571,0.0,2023-09-22 14:59:15.126
66.0,-168541.11624254184,-187500.02235174447,-38879.13839568358,-28177.3019644382,51361.04540360515,70100.70325144568,106599.71613880587,48793.14289011275,80706.36012629989,35475.28063956268,-7091.537963335271,19889.565693088254,49571.07300413526,25693.41965835329,-16323.635437921936,-52803.93991517305,-0.07,0.91,0.45,192.0,0.0,0.0,0.0,0.0,0.0,0.0,0.0,0.0,0.0,1695412755.126574,0.0,2023-09-22 14:59:15.126
68.0,-168639.84389780092,-187500.02235174447,-38993.57932729475,-28251.420349052,51367.92974089739,70043.46043389564,106531.85624263958,48719.02450549895,80656.49338442009,35455.365235253004,-7081.479678330384,19900.473344382448,49502.386093424095,25701.108658445915,-16315.074719795552,-52828.1692061626,-0.07,0.91,0.45,192.0,0.0,0.0,0.0,0.0,0.0,0.0,0.0,0.0,0.0,1695412755.126577,0.0,2023-09-22 14:59:15.126
70.0,-168587.63022275333,-187500.02235174447,-38878.11021543863,-28182.48756915183,51364.80049667365,70092.83543739741,106602.2642376738,48782.52581149648,80689.52926272503,35464.08241559058,-7086.955855721933,19896.18180944703,49550.57645446974,25694.827818253973,-16319.142737286418,-52822.40245609313,-0.07,0.91,0.45,192.0,0.0,0.0,0.0,0.0,0.0,0.0,0.0,0.0,0.0,1695412755.12658,0.0,2023-09-22 14:59:15.126
72.0,-168689.39771525832,-187500.02235174447,-38995.2557081289,-28258.21527936641,51365.0240141182,70033.67036982422,106518.15462328849,48706.17225243715,80658.25917223206,35460.23791554426,-7079.624483540593,19908.98935901992,49513.5396139073,25698.582911322464,-16317.533411685636,-52819.89906071414,-0.07,0.908,0.444,192.0,126.5,104.0,14.0,48.0,6.5,112.0,0.0,0.0,0.0,1695412755.126583,0.0,2023-09-22 14:59:15.126
74.0,-168639.6650838453,-187500.02235174447,-38868.96835195641,-28179.939470283924,51366.05219436315,70091.06964958545,106609.19327845494,48779.597732972834,80680.9461928542,35459.05327308813,-7092.45438485794,19900.406289149083,49538.57356769724,25701.689803801757,-16316.192307018318,-52829.95734571903,-0.07,0.908,0.444,192.0,0.0,0.0,0.0,0.0,0.0,0.0,0.0,0.0,0.0,1695412755.126587,0.0,2023-09-22 14:59:15.126
76.0,-168783.65502162636,-187500.02235174447,-38995.12159766217,-28266.01603818131,51365.09106935157,70029.5800005889,106522.55791694616,48696.762168021465,80657.11923326484,35452.995950340744,-7085.525344076794,19903.08849848372,49516.0877127752,25711.47986787318,-16306.268132480162,-52818.043865924345,-0.07,0.908,0.444,192.0,0.0,0.0,0.0,0.0,0.0,0.0,0.0,0.0,0.0,1695412755.186798,0.0,2023-09-22 14:59:15.186
78.0,-168766.19830920678,-187500.02235174447,-38863.69334026496,-28178.799531316705,51360.06192684912,70097.26108279957,106621.77731058327,48779.86595390629,80666.30580023598,35442.53533393566,-7096.969437237912,19892.247902422896,49523.12851227862,25714.497353374645,-16305.03878653512,-52850.61035759573,-0.07,0.908,0.444,192.0,0.0,0.0,0.0,0.0,0.0,0.0,0.0,0.0,0.0,1695412755.186824,0.0,2023-09-22 14:59:15.186
80.0,-168879.32048789508,-187500.02235174447,-38958.42003326655,-28233.91893314349,51340.370039984,70051.55176538846,106508.9904080618,48719.628002599246,80650.92780005072,35450.35844449502,-7111.498071133861,19878.479227838427,49536.83013162972,25701.75685903512,-16314.158298272883,-52783.39866201862,-0.07,0.908,0.444,192.0,0.0,0.0,0.0,0.0,0.0,0.0,0.0,0.0,0.0,1695412755.186829,0.0,2023-09-22 14:59:15.186
82.0,-168895.7713718142,-187500.02235174447,-38879.607782317136,-28193.05994427919,51351.09887732254,70082.91126285926,106608.27685693228,48761.001081586015,80652.13479425131,35396.91542350238,-7127.07723701921,19857.7368089839,49500.150918978565,25705.444896870245,-16302.401280689392,-52843.48015111448,-0.074,0.904,0.444,192.0,126.5,88.0,14.0,32.0,6.5,112.0,0.0,0.0,0.0,1695412755.186833,0.0,2023-09-22 14:59:15.186
84.0,-168990.31925086014,-187500.02235174447,-38940.78450689132,-28228.15218307402,51332.68103989137,70056.91618405774,106512.45492845235,48724.724200335055,80635.70626207665,35403.844464283524,-7156.425077489028,19826.824346402213,49531.01867807134,25695.94540547674,-16309.84441159301,-52780.55999047279,-0.074,0.904,0.444,192.0,0.0,0.0,0.0,0.0,0.0,0.0,0.0,0.0,0.0,1695412755.186838,0.0,2023-09-22 14:59:15.186
86.0,-169066.89632736403,-187500.02235174447,-38900.88664303859,-28214.495267211827,51349.757772655226,70059.10665501436,106590.35075787912,48736.525921407454,80607.61011929633,35351.4966787692,-7165.65634794907,19807.803011870743,49479.944941990965,25693.4643618422,-16298.579132387536,-52848.35283140574,-0.074,0.904,0.444,192.0,0.0,0.0,0.0,0.0,0.0,0.0,0.0,0.0,0.0,1695412755.186843,0.0,2023-09-22 14:59:15.186
88.0,-169188.62392766762,-187500.02235174447,-38955.49195474291,-28247.598200750137,51333.19513001384,70035.12323321382,106518.2887337552,48701.97012447955,80618.76363977953,35360.1468038734,-7175.781688187324,19791.59799714065,49527.95648908097,25687.20587339472,-16296.902751553387,-52820.05552292532,-0.074,0.904,0.444,192.0,0.0,0.0,0.0,0.0,0.0,0.0,0.0,0.0,0.0,1695412755.186847,0.0,2023-09-22 14:59:15.186
90.0,-169275.12517870966,-187500.02235174447,-38934.95070158848,-28246.23474433837,51359.05609834864,70041.71699782813,106599.917304506,48713.86125252977,80595.40606682374,35314.6833556513,-7175.826391676234,19787.708793605423,49461.34829060415,25687.563501306,-16288.587902616013,-52895.64912267317,-0.074,0.904,0.444,192.0,0.0,0.0,0.0,0.0,0.0,0.0,0.0,0.0,0.0,1695412755.247042,0.0,2023-09-22 14:59:15.247
92.0,-169255.2544778889,-187500.02235174447,-38927.8875503406,-28227.70514818492,51328.47891193377,70052.9375735447,106531.07393158364,48733.79900858391,80625.49151486058,35351.988417147215,-7191.807888961779,19768.70981081841,49546.12845732313,25670.9114516868,-16301.730728355737,-52816.14396764564,-0.076,0.902,0.446,192.0,126.5,80.0,14.0,24.0,6.5,120.0,0.0,0.0,0.0,1695412755.247055,0.0,2023-09-22 14:59:15.247
94.0,-169193.85423587015,-187500.02235174447,-38905.55815762975,-28216.39516549053,51356.373889014,70057.60908813585,106582.57235080868,48746.65126164571,80584.83369169637,35313.49871319517,-7192.478441295439,19765.96054625041,49469.70784303044,25668.69862898572,-16302.066004522563,-52862.65794785714,-0.076,0.902,0.446,192.0,0.0,0.0,0.0,0.0,0.0,0.0,0.0,0.0,0.0,1695412755.247059,0.0,2023-09-22 14:59:15.247
96.0,-169102.48030453688,-187500.02235174447,-38888.637887077086,-28200.279557738253,51333.79862711413,70063.15232076077,106525.66480942546,48750.249892503016,80625.51386660503,35339.56084723006,-7195.942961686011,19760.037333969754,49551.38111727013,25670.687934242244,-16303.205943489784,-52795.13332785766,-0.076,0.902,0.446,192.0,0.0,0.0,0.0,0.0,0.0,0.0,0.0,0.0,0.0,1695412755.247063,0.0,2023-09-22 14:59:15.247
98.0,-169049.19374575542,-187500.02235174447,-38908.4862361534,-28219.747927158827,51357.17855181439,70046.36616067484,106566.23322561184,48731.34031669382,80573.00961887951,35291.05756176204,-7191.807888961779,19764.842959027643,49457.95082544695,25664.764721961583,-16301.70837661128,-52871.71040436154,-0.076,0.902,0.446,192.0,0.0,0.0,0.0,0.0,0.0,0.0,0.0,0.0,0.0,1695412755.247066,0.0,2023-09-22 14:59:15.247
100.0,-168978.24930885428,-187500.02235174447,-38891.94594525647,-28213.62354917807,51334.2680137477,70045.27092519653,106517.90875409948,48727.54052013642,80616.55081707846,35335.17990531682,-7201.575601288749,19759.076208958177,49549.95060562499,25662.10486437141,-16312.571324416558,-52803.42582505057,-0.076,0.902,0.446,192.0,0.0,0.0,0.0,0.0,0.0,0.0,0.0,0.0,0.0,1695412755.24707,0.0,2023-09-22 14:59:15.247
102.0,-168965.91114591493,-187500.02235174447,-38915.90701531256,-28224.73236617236,51344.90744410842,70038.87832628231,106525.57540244763,48719.02450549895,80581.95031666163,35303.79805610157,-7185.974083658944,19774.834188799166,49454.39689807855,25670.75498947561,-16311.431385449338,-52883.33331147829,-0.072,0.906,0.452,192.0,126.5,96.0,14.0,40.0,7.0,16.0,0.0,0.0,0.0,1695412755.247074,0.0,2023-09-22 14:59:15.247
104.0,-168950.7790149187,-187500.02235174447,-38827.97525262538,-28160.359342141077,51323.56152815361,70081.97248959214,106511.85143135209,48767.61719794479,80626.25147417205,35362.0467021521,-7198.401653576095,19774.05187774323,49550.33058528073,25664.965887661685,-16326.451757723304,-52788.78543243235,-0.072,0.906,0.452,192.0,0.0,0.0,0.0,0.0,0.0,0.0,0.0,0.0,0.0,1695412755.247077,0.0,2023-09-22 14:59:15.247
106.0,-169067.94685935343,-187500.02235174447,-38909.62617512062,-28217.333938757653,51345.063906319614,70040.10767222734,106515.65122790947,48708.67564781614,80581.14565386125,35339.0914605965,-7173.457106763972,19805.232561258385,49449.43481080947,25689.95513796272,-16308.70447262579,-52849.4257151396,-0.072,0.906,0.452,192.0,0.0,0.0,0.0,0.0,0.0,0.0,0.0,0.0,0.0,1695412755.306508,0.0,2023-09-22 14:59:15.306
108.0,-168989.91691945994,-187500.02235174447,-38819.8615693881,-28158.77236828475,51336.59259517105,70079.71496340215,106536.90773688648,48758.09535480683,80640.40012841226,35387.214766408775,-7181.436679534517,19796.80595359873,49539.55704445327,25688.055239684018,-16313.8006703616,-52796.809708691806,-0.072,0.906,0.452,192.0,0.0,0.0,0.0,0.0,0.0,0.0,0.0,0.0,0.0,1695412755.306521,0.0,2023-09-22 14:59:15.306
110.0,-169018.9965389963,-187500.02235174447,-38891.45420687845,-28199.43019144895,51350.58478720008,70050.07655025441,106522.647323924,48722.26550844497,80583.98432540707,35365.22064986475,-7161.141295569098,19815.40260498555,49464.61164529463,25695.364260120903,-16299.808478332578,-52843.88248251468,-0.072,0.906,0.452,192.0,0.0,0.0,0.0,0.0,0.0,0.0,0.0,0.0,0.0,1695412755.306525,0.0,2023-09-22 14:59:15.306
112.0,-168928.62843616348,-187500.02235174447,-38794.20176675341,-28142.52265006574,51340.07946730608,70086.37578324984,106550.4528940264,48771.640511946745,80632.3758521528,35406.88430152945,-7165.745754926891,19814.32972125169,49542.52982646583,25692.145608919334,-16308.525658670147,-52796.96617090299,-0.068,0.906,0.446,192.0,126.5,112.0,14.0,40.0,6.5,120.0,0.0,0.0,0.0,1695412755.306529,0.0,2023-09-22 14:59:15.306
114.0,-168982.76436123424,-187500.02235174447,-38906.6310413636,-28218.20565679141,51350.83065638908,70038.23012569311,106506.53171617172,48702.93124949113,80605.41964833971,35381.15744366139,-7144.466894205439,19830.244163303872,49468.74671801886,25705.93663524826,-16293.393527673905,-52847.83874128327,-0.068,0.906,0.446,192.0,0.0,0.0,0.0,0.0,0.0,0.0,0.0,0.0,0.0,1695412755.306532,0.0,2023-09-22 14:59:15.306
116.0,-168849.16798462486,-187500.02235174447,-38771.15711821999,-28127.256408602767,51346.42736273138,70100.5467892345,106564.04275465522,48782.43640451866,80658.50504142107,35414.9085777889,-7159.554321712772,19819.023587587308,49548.00600385738,25691.855036241417,-16304.524696412647,-52806.108034385215,-0.068,0.906,0.446,192.0,0.0,0.0,0.0,0.0,0.0,0.0,0.0,0.0,0.0,1695412755.306535,0.0,2023-09-22 14:59:15.306
118.0,-168872.8608337475,-187500.02235174447,-38877.41731136052,-28193.171703001462,51355.83744714707,70052.44583516668,106501.390814947,48719.829168299344,80619.61300606883,35409.81238005309,-7140.51063543685,19845.7339222114,49497.580468366206,25701.53334159057,-16292.208885217771,-52812.47828155498,-0.068,0.906,0.446,192.0,0.0,0.0,0.0,0.0,0.0,0.0,0.0,0.0,0.0,1695412755.306538,0.0,2023-09-22 14:59:15.306
120.0,-168713.6270062479,-187500.02235174447,-38724.0396409082,-28090.89012037398,51358.63141520399,70122.0491674005,106582.63940604204,48815.4722828236,80649.45258491667,35424.92215930488,-7155.039269332799,19827.852526647155,49551.403469014585,25690.022193196084,-16301.015472533163,-52785.81265041979,-0.068,0.906,0.446,192.0,0.0,0.0,0.0,0.0,0.0,0.0,0.0,0.0,0.0,1695412755.3663,0.0,2023-09-22 14:59:15.366
122.0,-168738.90682922685,-187500.02235174447,-38836.80419168522,-28162.080426464134,51354.00460410173,70055.0386375235,106484.20232346086,48737.01765978547,80624.19511368217,35426.28561571665,-7144.891577350089,19834.31218079474,49523.91082333456,25693.509065331116,-16302.714205111768,-52753.96141457098,-0.068,0.908,0.444,192.0,126.5,112.0,14.0,48.0,6.5,112.0,0.0,0.0,0.0,1695412755.366313,0.0,2023-09-22 14:59:15.366
124.0,-168659.08874977694,-187500.02235174447,-38764.49629837231,-28130.36330108205,51373.94236015587,70077.68095465672,106576.49267631683,48761.89515136423,80647.84325931588,35404.64912708392,-7130.720571365425,19850.047808891275,49523.53084367882,25702.762687535607,-16292.544161384603,-52812.70179899953,-0.068,0.908,0.444,192.0,0.0,0.0,0.0,0.0,0.0,0.0,0.0,0.0,0.0,1695412755.366317,0.0,2023-09-22 14:59:15.366
126.0,-168672.38803772783,-187500.02235174447,-38865.36972109911,-28185.974441286857,51360.21838906031,70036.84431753687,106497.12163175605,48702.48421460202,80636.15329696576,35424.58688313805,-7127.948955052967,19856.328649083214,49533.85734961717,25705.48960035916,-16292.834734062522,-52797.39085404764,-0.068,0.908,0.444,192.0,0.0,0.0,0.0,0.0,0.0,0.0,0.0,0.0,0.0,1695412755.36632,0.0,2023-09-22 14:59:15.366
128.0,-168573.5933272354,-187500.02235174447,-38782.60121138111,-28146.18833615641,51371.416613032416,70070.79661736448,106583.37701360906,48743.27614823296,80658.4379861877,35419.17776097987,-7119.947030537967,19862.43067531952,49531.197492026986,25708.909417260817,-16292.342995684505,-52835.58998532176,-0.068,0.908,0.444,192.0,0.0,0.0,0.0,0.0,0.0,0.0,0.0,0.0,0.0,1695412755.366323,0.0,2023-09-22 14:59:15.366
130.0,-168582.6904872287,-187500.02235174447,-38883.94402074147,-28214.316453256182,51345.0192028307,70022.24862840756,106483.57647461611,48675.55036253338,80653.94528555218,35441.753022879726,-7115.78960606928,19874.187692903008,49538.37240199714,25715.726699319686,-16298.445021920805,-52822.40245609313,-0.068,0.908,0.444,192.0,0.0,0.0,0.0,0.0,0.0,0.0,0.0,0.0,0.0,1695412755.366326,0.0,2023-09-22 14:59:15.366
132.0,-168431.12330807725,-187500.02235174447,-38761.47881287084,-28127.05524290267,51354.51869422421,70089.75089666259,106585.90276073253,48759.90584610771,80652.47007041813,35428.83371458456,-7129.580632398204,19859.815521218243,49522.70382913397,25710.42933588378,-16305.932856313331,-52867.50827640394,-0.074,0.904,0.438,192.0,126.5,88.0,14.0,32.0,6.5,88.0,0.0,0.0,0.0,1695412755.366329,0.0,2023-09-22 14:59:15.366
134.0,-168391.33720294683,-187500.02235174447,-38818.47576123187,-28154.95021998289,51330.28940323465,70060.76068410405,106483.44236414938,48726.69115384712,80662.05896878945,35466.630514458484,-7128.977135297911,19861.044867163288,49565.50741976588,25709.08823121646,-16310.716129626768,-52787.22081032048,-0.074,0.904,0.438,192.0,0.0,0.0,0.0,0.0,0.0,0.0,0.0,0.0,0.0,1695412755.366333,0.0,2023-09-22 14:59:15.366
136.0,-168285.3675824842,-187500.02235174447,-38744.93852197391,-28108.92797814941,51348.05904007662,70093.90832113127,106573.54224604872,48770.67938693517,80638.72374757811,35441.08247054607,-7122.36101893914,19865.492864309894,49503.70484634696,25715.81610629751,-16308.235085992228,-52848.35283140574,-0.074,0.904,0.438,192.0,0.0,0.0,0.0,0.0,0.0,0.0,0.0,0.0,0.0,1695412755.427348,0.0,2023-09-22 14:59:15.427
138.0,-168221.2180758975,-187500.02235174447,-38770.84419379762,-28113.84536192958,51324.34383920954,70078.08328605692,106477.7873728022,48751.23336925905,80666.0375793025,35484.57896525609,-7131.5028824213605,19858.899099695576,49572.27999833584,25705.08726895896,-16319.455661708793,-52755.48133319394,-0.074,0.904,0.438,192.0,0.0,0.0,0.0,0.0,0.0,0.0,0.0,0.0,0.0,1695412755.427358,0.0,2023-09-22 14:59:15.427
140.0,-168169.4961392279,-187500.02235174447,-38761.65762682648,-28120.975568410824,51355.03278434668,70072.22712900963,106550.11761785956,48740.39277319823,80649.92197155023,35440.94836007933,-7109.9781525109,19880.848512750686,49493.22187819742,25721.96283602272,-16302.08835626702,-52842.250805169446,-0.074,0.904,0.438,192.0,0.0,0.0,0.0,0.0,0.0,0.0,0.0,0.0,0.0,1695412755.427361,0.0,2023-09-22 14:59:15.427
142.0,-168074.03183865928,-187500.02235174447,-38748.13482143102,-28099.808466411647,51316.8113013281,70080.60903318037,106490.70668109736,48747.41122095719,80672.60899217236,35482.38849429947,-7122.830405572701,19869.69499226749,49579.47726005045,25714.13972546336,-16315.812327362575,-52775.12851657016,-0.076,0.908,0.44,192.0,126.5,80.0,14.0,48.0,6.5,96.0,0.0,0.0,0.0,1695412755.427364,0.0,2023-09-22 14:59:15.427
144.0,-168005.97077679288,-187500.02235174447,-38740.825800994135,-28097.75210592176,51344.66157491942,70080.92195760274,106540.64047821052,48743.90199707771,80635.77331731001,35447.65388341593,-7115.610792113637,19878.70274528298,49495.81468055424,25716.17373420879,-16313.063062794576,-52823.94472646055,-0.076,0.908,0.44,192.0,0.0,0.0,0.0,0.0,0.0,0.0,0.0,0.0,0.0,1695412755.427368,0.0,2023-09-22 14:59:15.427
146.0,-167920.2741885512,-187500.02235174447,-38734.5896642911,-28093.304108775155,51328.3671532115,70081.61486168085,106492.67363460944,48739.90103482021,80690.02100110304,35488.31170658013,-7116.124882236109,19879.08272493872,49581.39951007361,25719.839420299464,-16312.258399994183,-52756.37540297215,-0.076,0.908,0.44,192.0,0.0,0.0,0.0,0.0,0.0,0.0,0.0,0.0,0.0,1695412755.427371,0.0,2023-09-22 14:59:15.427
148.0,-167888.46765619132,-187500.02235174447,-38773.414644409975,-28125.892952190992,51350.13775231096,70058.74902710307,106531.5433182172,48710.173214694645,80640.06485224544,35442.512982191205,-7106.334818164685,19889.006899476877,49486.33754090519,25725.740280835664,-16304.79291734611,-52843.94953774805,-0.076,0.908,0.44,192.0,0.0,0.0,0.0,0.0,0.0,0.0,0.0,0.0,0.0,1695412755.427374,0.0,2023-09-22 14:59:15.427
150.0,-167744.43301492132,-187500.02235174447,-38701.59848947507,-28070.59473640856,51324.58970839855,70092.76838216405,106511.02441680724,48751.83686635934,80692.79261741551,35494.7266572388,-7121.243431716375,19870.92433821253,49584.21582987498,25708.23886492716,-16317.622818663458,-52769.83115313425,-0.076,0.908,0.44,192.0,0.0,0.0,0.0,0.0,0.0,0.0,0.0,0.0,0.0,1695412755.48618,0.0,2023-09-22 14:59:15.486
152.0,-167727.7362618132,-187500.02235174447,-38772.11824323157,-28127.01053941376,51360.21838906031,70051.44000666619,106525.10601581408,48698.05856919987,80632.75583180855,35451.78895614016,-7098.534059349783,19891.823219278245,49479.8778867576,25717.984225509677,-16301.104879510984,-52839.92622374609,-0.076,0.908,0.442,192.0,126.5,80.0,14.0,48.0,6.5,104.0,0.0,0.0,0.0,1695412755.486194,0.0,2023-09-22 14:59:15.486
154.0,-167567.16132964627,-187500.02235174447,-38677.68212290789,-28057.943649046854,51341.0182405732,70095.6517571988,106522.75908264628,48756.5083809505,80687.67406793524,35495.9783549283,-7116.393103169573,19874.858245236665,49583.12059439666,25702.47211485769,-16314.873554095457,-52764.28792050933,-0.076,0.908,0.442,192.0,0.0,0.0,0.0,0.0,0.0,0.0,0.0,0.0,0.0,1695412755.486198,0.0,2023-09-22 14:59:15.486
156.0,-167557.95241093068,-187500.02235174447,-38770.263048441775,-28122.204914355865,51361.0230518607,70049.65186710976,106511.87378309654,48695.91280173216,80648.58086688291,35458.7179969213,-7092.633198813582,19893.00786173437,49487.16455545004,25719.61590285491,-16297.595655631503,-52823.45298808253,-0.076,0.908,0.442,192.0,0.0,0.0,0.0,0.0,0.0,0.0,0.0,0.0,0.0,1695412755.486201,0.0,2023-09-22 14:59:15.486
158.0,-167428.15583087874,-187500.02235174447,-38698.64805920697,-28083.02230632571,51349.958938355325,70075.57989067792,106539.47818749884,48729.9545085376,80701.8450739199,35477.40405528594,-7095.203649425942,19890.102134955185,49566.8485244332,25717.13485922037,-16296.813344575568,-52809.75136873143,-0.076,0.908,0.442,192.0,0.0,0.0,0.0,0.0,0.0,0.0,0.0,0.0,0.0,1695412755.486204,0.0,2023-09-22 14:59:15.486
160.0,-167381.0607053114,-187500.02235174447,-38764.69746407241,-28117.19812359788,51359.190208815366,70050.38947467679,106511.65026565196,48700.02552271194,80652.80534658497,35460.148508566446,-7098.444652371962,19886.771725031344,49502.877831802114,25715.637292341864,-16302.289521967115,-52841.46849411351,-0.076,0.908,0.442,192.0,0.0,0.0,0.0,0.0,0.0,0.0,0.0,0.0,0.0,1695412755.486207,0.0,2023-09-22 14:59:15.486
162.0,-167206.62769158217,-187500.02235174447,-38644.37802366949,-28038.22941043728,51353.73638316827,70100.65854795677,106543.88148115654,48766.18668629965,80711.79160020252,35488.088189135575,-7106.893611776068,19877.45104759348,49583.23235311894,25709.37880389438,-16307.788051103122,-52776.84960089321,-0.08,0.904,0.444,192.0,126.5,64.0,14.0,32.0,6.5,112.0,0.0,0.0,0.0,1695412755.48621,0.0,2023-09-22 14:59:15.486
164.0,-167209.8686945282,-187500.02235174447,-38762.775214049245,-28115.61114974155,51363.660557706426,70047.4837478976,106496.9428178004,48692.291819130405,80673.16778578375,35443.67527290288,-7077.344605606152,19902.03796649432,49499.61447711164,25726.433184913774,-16289.057289249577,-52838.13808418967,-0.08,0.904,0.444,192.0,0.0,0.0,0.0,0.0,0.0,0.0,0.0,0.0,0.0,1695412755.486213,0.0,2023-09-22 14:59:15.486
166.0,-167029.6242272406,-187500.02235174447,-38632.57630259709,-28030.316892900097,51362.542970483664,70106.78292593753,106562.14285637652,48772.57928521386,80711.4563240357,35478.34282855306,-7101.842117529169,19880.110905183665,49571.27416983535,25711.90455101783,-16304.859972579476,-52789.92537139957,-0.08,0.904,0.444,192.0,0.0,0.0,0.0,0.0,0.0,0.0,0.0,0.0,0.0,1695412755.546442,0.0,2023-09-22 14:59:15.546
168.0,-166986.8653400976,-187500.02235174447,-38711.679126224415,-28071.13117827549,51362.25239780574,70076.67512615623,106512.70079764136,48733.17315973916,80672.96662008365,35469.580944726586,-7092.990826724867,19889.40923087707,49527.19652976949,25719.012405754616,-16296.56747538656,-52795.17803134656,-0.08,0.904,0.444,192.0,0.0,0.0,0.0,0.0,0.0,0.0,0.0,0.0,0.0,1695412755.546452,0.0,2023-09-22 14:59:15.546
170.0,-166834.1358702345,-187500.02235174447,-38603.98842143875,-28009.596825790028,51376.89279042397,70110.85094342839,106593.56940908068,48785.7668144425,80709.86935017936,35471.190270327366,-7094.019006969811,19888.71632679896,49556.03028011684,25714.78792605256,-16294.242893963206,-52781.72228118447,-0.08,0.904,0.444,192.0,0.0,0.0,0.0,0.0,0.0,0.0,0.0,0.0,0.0,1695412755.546456,0.0,2023-09-22 14:59:15.546
172.0,-166818.04261422667,-187500.02235174447,-38711.70147796887,-28075.64623065546,51365.69456645186,70059.75485560356,106509.50449818428,48717.5492903649,80685.19302430071,35467.83750865907,-7086.240599899364,19898.23816993692,49529.3422972372,25723.01336801212,-16296.56747538656,-52780.91761838408,-0.082,0.904,0.44,192.0,126.5,56.0,14.0,32.0,6.5,96.0,0.0,0.0,0.0,1695412755.546459,0.0,2023-09-22 14:59:15.546
174.0,-166666.94482170878,-187500.02235174447,-38603.42962782736,-28009.30625311211,51366.09689785205,70101.01617586806,106592.31771139118,48772.02049160248,80696.83828316192,35465.26705804671,-7090.532134834783,19893.14197220111,49533.85734961717,25718.252446443137,-16302.781260345131,-52801.10124362722,-0.082,0.904,0.44,192.0,0.0,0.0,0.0,0.0,0.0,0.0,0.0,0.0,0.0,1695412755.546462,0.0,2023-09-22 14:59:15.546
176.0,-166642.1790888523,-187500.02235174447,-38707.72286745583,-28075.64623065546,51349.042516832655,70050.09890199888,106492.13719274248,48700.85253725678,80677.43696897471,35473.626610472995,-7088.989864467367,19900.182771704527,49526.07894254672,25716.35254816444,-16307.028091791644,-52790.79708943333,-0.082,0.904,0.44,192.0,0.0,0.0,0.0,0.0,0.0,0.0,0.0,0.0,0.0,1695412755.546466,0.0,2023-09-22 14:59:15.546
178.0,-166473.98221182614,-187500.02235174447,-38600.36743883698,-28010.714413012796,51363.660557706426,70094.33300427592,106589.88137124556,48759.41410772969,80680.83443413192,35463.411863256915,-7097.21530642692,19891.28677741132,49522.1897390115,25712.66451032931,-16309.106804025983,-52817.46272056851,-0.082,0.904,0.44,192.0,0.0,0.0,0.0,0.0,0.0,0.0,0.0,0.0,0.0,1695412755.546469,0.0,2023-09-22 14:59:15.546
180.0,-166425.05424321347,-187500.02235174447,-38692.27781203721,-28065.967925306315,51344.92979585288,70050.14360548778,106481.72127982632,48696.44924359909,80685.97533535663,35482.81317744412,-7094.667207559015,19889.811562277268,49545.882588134125,25710.742260306157,-16314.13594652843,-52769.13824905614,-0.082,0.904,0.44,192.0,0.0,0.0,0.0,0.0,0.0,0.0,0.0,0.0,0.0,1695412755.606857,0.0,2023-09-22 14:59:15.606
182.0,-166258.84667144378,-187500.02235174447,-38594.75715097871,-27999.851465207517,51360.28544429367,70097.70811768867,106587.22151365536,48759.52586645197,80683.13666381082,35457.98038935428,-7090.018044712311,19896.204161191483,49510.72329410593,25716.71017607572,-16313.063062794576,-52830.69495328605,-0.078,0.906,0.44,192.0,126.5,72.0,14.0,40.0,6.5,96.0,0.0,0.0,0.0,1695412755.60687,0.0,2023-09-22 14:59:15.606
184.0,-166213.56203717735,-187500.02235174447,-38680.83371887609,-28062.391646193464,51348.68488892137,70042.00757050604,106475.97688150132,48688.44731908409,80688.43402724672,35493.74318048277,-7098.042320971767,19895.66771932456,49562.33347205323,25709.6693765723,-16320.103862297996,-52756.30834773879,-0.078,0.906,0.44,192.0,0.0,0.0,0.0,0.0,0.0,0.0,0.0,0.0,0.0,1695412755.606874,0.0,2023-09-22 14:59:15.606
186.0,-166103.6138062017,-187500.02235174447,-38647.32845393759,-28051.08166349908,51379.41853754742,70056.58090789091,106581.99120545282,48707.28983965991,80675.045332318,35446.17866828188,-7074.014195682311,19914.979626533943,49494.69709333147,25732.646969872352,-16295.360481185971,-52883.24390450048,-0.078,0.906,0.44,192.0,0.0,0.0,0.0,0.0,0.0,0.0,0.0,0.0,0.0,1695412755.606877,0.0,2023-09-22 14:59:15.606
188.0,-165968.20693829143,-187500.02235174447,-38645.0709277476,-28032.55206734563,51347.58965344306,70065.07457078392,106501.16729750244,48725.26064220198,80706.58364374444,35509.478808579304,-7099.942219250467,19889.878617510632,49583.32176009676,25708.03769922706,-16317.242839007717,-52784.82917366376,-0.078,0.906,0.44,192.0,0.0,0.0,0.0,0.0,0.0,0.0,0.0,0.0,0.0,1695412755.606881,0.0,2023-09-22 14:59:15.606
190.0,-165882.21977737188,-187500.02235174447,-38648.31193069362,-28047.28186694168,51379.70911022534,70054.50219565656,106562.32167033217,48711.46961587306,80664.60706765736,35467.83750865907,-7082.709024275426,19903.78140256183,49497.35695092165,25720.37586216639,-16305.597580146505,-52857.6735088436,-0.078,0.906,0.44,192.0,0.0,0.0,0.0,0.0,0.0,0.0,0.0,0.0,0.0,1695412755.606884,0.0,2023-09-22 14:59:15.606
192.0,-165730.54083949816,-187500.02235174447,-38614.9631279663,-28010.133267656955,51345.84621737555,70082.08424831441,106515.71828314284,48743.79023835543,80716.37370781586,35514.06091619264,-7088.364015622618,19901.680338583035,49591.03311193384,25722.655740100832,-16313.823022106057,-52793.47929876796,-0.072,0.906,0.442,192.0,126.5,96.0,14.0,40.0,6.5,104.0,0.0,0.0,0.0,1695412755.606888,0.0,2023-09-22 14:59:15.606
194.0,-165635.85884998547,-187500.02235174447,-38622.763886781206,-28018.425764849875,51365.44869726285,70074.57406217743,106558.72303947486,48739.4539999311,80669.23387875961,35472.75489243923,-7078.30573061773,19912.65504511059,49496.46288114344,25737.38553969688,-16310.090280782018,-52851.9738140075,-0.072,0.906,0.442,192.0,0.0,0.0,0.0,0.0,0.0,0.0,0.0,0.0,0.0,1695412755.606891,0.0,2023-09-22 14:59:15.606
196.0,-165474.34514455142,-187500.02235174447,-38576.38401703644,-27979.332563797543,51333.68686839186,70094.17654206474,106517.03703606573,48770.098241579326,80707.41065828927,35511.40105860246,-7090.889762746068,19906.307149685283,49583.03118741884,25723.84038255696,-16323.076644310551,-52780.11295558369,-0.072,0.906,0.442,192.0,0.0,0.0,0.0,0.0,0.0,0.0,0.0,0.0,0.0,1695412755.66712,0.0,2023-09-22 14:59:15.667
198.0,-165402.4842861276,-187500.02235174447,-38615.54427332214,-28008.658052522907,51359.88311289348,70066.12510277332,106536.86303339756,48743.11968602177,80665.81406185795,35467.72574993679,-7077.21049513942,19915.60547537869,49491.07611072971,25726.05320525804,-16319.768586131167,-52835.99231672196,-0.072,0.906,0.442,192.0,0.0,0.0,0.0,0.0,0.0,0.0,0.0,0.0,0.0,1695412755.66713,0.0,2023-09-22 14:59:15.667
200.0,-165281.6731073467,-187500.02235174447,-38593.10312188901,-28001.192569874835,51346.85204587603,70065.05221903947,106514.10895754206,48740.19160749813,80711.5010275246,35495.46426480583,-7080.83147774118,19912.006844521387,49571.98942565792,25728.80246982604,-16324.305990255594,-52795.28979006884,-0.072,0.906,0.442,192.0,0.0,0.0,0.0,0.0,0.0,0.0,0.0,0.0,0.0,1695412755.667134,0.0,2023-09-22 14:59:15.667
202.0,-165236.52258354696,-187500.02235174447,-38659.06311977663,-28048.488861142265,51368.3767757865,70035.21264019163,106537.17595781994,48699.8467087563,80678.28633526401,35453.4653369743,-7068.314500846208,19919.785251591835,49478.76029953484,25739.933638564784,-16312.07958603854,-52894.956218595056,-0.072,0.908,0.442,192.0,126.5,96.0,14.0,48.0,6.5,104.0,0.0,0.0,0.0,1695412755.667137,0.0,2023-09-22 14:59:15.667
204.0,-165059.94380235003,-187500.02235174447,-38572.2042408233,-27988.452075535308,51343.70044990784,70078.61972792384,106536.61716420855,48749.825209358365,80719.63706250633,35495.75483748375,-7088.207553411431,19905.50248688489,49573.28582683633,25725.203838968737,-16328.41871123537,-52838.182787678576,-0.072,0.908,0.442,192.0,0.0,0.0,0.0,0.0,0.0,0.0,0.0,0.0,0.0,1695412755.66714,0.0,2023-09-22 14:59:15.667
206.0,-164991.949795717,-187500.02235174447,-38632.35278515253,-28017.93402647186,51351.18828430036,70053.80929157845,106515.60652442055,48719.31507817687,80658.21446874314,35472.10669185003,-7086.933503977479,19913.996149777908,49485.64463682707,25732.46815591671,-16330.966810103277,-52880.42758469911,-0.072,0.908,0.442,192.0,0.0,0.0,0.0,0.0,0.0,0.0,0.0,0.0,0.0,1695412755.667144,0.0,2023-09-22 14:59:15.667
208.0,-164778.66945012443,-187500.02235174447,-38502.73501905621,-27925.218990471243,51330.69173463485,70110.38155679483,106538.20413806487,48796.02626514749,80701.66625996426,35509.50116032376,-7105.418396642018,19888.828085521232,49574.448117548,25715.458478386223,-16347.976487633763,-52797.25674358091,-0.072,0.908,0.442,192.0,0.0,0.0,0.0,0.0,0.0,0.0,0.0,0.0,0.0,1695412755.667147,0.0,2023-09-22 14:59:15.667
210.0,-164719.14675463995,-187500.02235174447,-38581.97195315027,-27966.636772946928,51337.665478904906,70068.22616675212,106497.90394281196,48746.22657850106,80651.26307621755,35478.16401459742,-7095.628332570593,19901.56857986076,49485.46582287143,25721.292283689058,-16343.52849048716,-52830.002049207935,-0.072,0.908,0.442,192.0,0.0,0.0,0.0,0.0,0.0,0.0,0.0,0.0,0.0,1695412755.727353,0.0,2023-09-22 14:59:15.727
212.0,-164537.78470012962,-187500.02235174447,-38475.08591116499,-27901.347327392978,51343.40987722992,70106.96173989317,106538.2935450427,48794.93102966917,80694.40194301629,35503.28737536519,-7108.771158310314,19884.8941784971,49553.66099520457,25711.59162659545,-16350.23401382375,-52781.87874339566,-0.074,0.912,0.442,192.0,126.5,88.0,14.0,64.0,6.5,104.0,0.0,0.0,0.0,1695412755.727367,0.0,2023-09-22 14:59:15.727
214.0,-164526.7876418576,-187500.02235174447,-38606.536520306654,-27989.033220891142,51357.44677274785,70045.02505600752,106484.1352682275,48706.28401115943,80655.2863902195,35477.538165752674,-7092.432033113484,19905.346024673705,49487.47747987241,25731.32821694949,-16325.580039689548,-52831.63372655317,-0.074,0.912,0.442,192.0,0.0,0.0,0.0,0.0,0.0,0.0,0.0,0.0,0.0,1695412755.727374,0.0,2023-09-22 14:59:15.727
216.0,-164335.97079944264,-187500.02235174447,-38487.40172235986,-27915.451278144275,51365.627511218496,70099.33979503391,106557.60545225209,48772.109898580304,80690.60214645888,35495.59837527256,-7106.580687353693,19887.486980853915,49548.9447771245,25712.820972540496,-16322.160222787885,-52821.35192410373,-0.074,0.912,0.442,192.0,0.0,0.0,0.0,0.0,0.0,0.0,0.0,0.0,0.0,1695412755.727379,0.0,2023-09-22 14:59:15.727
218.0,-164316.54713351096,-187500.02235174447,-38618.07002044559,-28003.181875131355,51373.04829037766,70038.78891930448,106484.80582056116,48691.91183947466,80659.98025655512,35480.622706487506,-7085.748861521347,19908.967007275463,49511.41619818404,25728.13191749238,-16300.233161477228,-52849.96215700652,-0.074,0.912,0.442,192.0,0.0,0.0,0.0,0.0,0.0,0.0,0.0,0.0,0.0,1695412755.727383,0.0,2023-09-22 14:59:15.727
220.0,-164125.30560795136,-187500.02235174447,-38496.1859579308,-27928.70586260627,51391.08614815309,70098.11044908887,106582.6617577865,48768.55597121191,80688.76930341356,35484.28839257817,-7087.805222011236,19908.27410319735,49553.72805043794,25728.64600761485,-16291.203056717284,-52864.110811246734,-0.074,0.912,0.442,192.0,0.0,0.0,0.0,0.0,0.0,0.0,0.0,0.0,0.0,1695412755.727386,0.0,2023-09-22 14:59:15.727
222.0,-164069.8732817022,-187500.02235174447,-38591.516148032686,-27983.95937489979,51380.33495907008,70056.04446602399,106491.86897180905,48717.728104320544,80684.96950685616,35487.819968202115,-7083.066652186711,19909.92813228704,49547.53661722381,25732.53521115008,-16284.251664191685,-52842.94370924756,-0.076,0.914,0.446,192.0,126.5,80.0,14.0,72.0,6.5,120.0,0.0,0.0,0.0,1695412755.72739,0.0,2023-09-22 14:59:15.727
224.0,-163881.1798550105,-187500.02235174447,-38475.48824256519,-27911.562074609054,51382.19015385988,70107.40877478228,106582.03590894176,48781.38587252926,80688.83635864692,35479.46041577583,-7088.319312133707,19907.044757252308,49548.69890793549,25735.977379796197,-16284.586940358511,-52865.13899149168,-0.076,0.914,0.446,192.0,0.0,0.0,0.0,0.0,0.0,0.0,0.0,0.0,0.0,1695412755.727393,0.0,2023-09-22 14:59:15.727
226.0,-163848.85923252814,-187500.02235174447,-38594.60068876752,-27991.335450570044,51368.488534508775,70044.75683507405,106481.31894842612,48698.1926796666,80684.52247196704,35488.378761813496,-7079.937407962967,19917.99711203541,49547.46956199045,25741.118281020917,-16283.916388024854,-52849.60452909524,-0.076,0.914,0.446,192.0,0.0,0.0,0.0,0.0,0.0,0.0,0.0,0.0,0.0,1695412755.786102,0.0,2023-09-22 14:59:15.786
228.0,-163660.90341340346,-187500.02235174447,-38483.847794991474,-27916.591217111494,51365.73926994077,70101.88789390182,106575.1068681606,48772.86985789178,80697.41942851775,35473.85012791755,-7090.241562156864,19908.587027619724,49527.844730358695,25740.783004854085,-16289.772545072145,-52902.60051519877,-0.076,0.914,0.446,192.0,0.0,0.0,0.0,0.0,0.0,0.0,0.0,0.0,0.0,1695412755.786113,0.0,2023-09-22 14:59:15.786
230.0,-163574.11158968348,-187500.02235174447,-38546.18681027732,-27945.179098269837,51332.50222593573,70073.00944006557,106463.34814588408,48738.35876445279,80700.23574831913,35501.56629104212,-7098.981094238889,19900.920379271556,49561.50645750838,25733.4739844172,-16304.010606290176,-52840.30620340183,-0.076,0.914,0.446,192.0,0.0,0.0,0.0,0.0,0.0,0.0,0.0,0.0,0.0,1695412755.786117,0.0,2023-09-22 14:59:15.786
232.0,-163441.14106191887,-187500.02235174447,-38489.25691714966,-27918.915798534847,51349.91423486641,70084.60999543786,106537.86886189804,48762.27513101997,80676.9452305967,35467.23401155877,-7097.081195960188,19908.922303786552,49514.09840751868,25735.3738826959,-16302.960074300776,-52903.40517799917,-0.074,0.908,0.442,192.0,126.5,88.0,14.0,48.0,6.5,104.0,0.0,0.0,0.0,1695412755.78612,0.0,2023-09-22 14:59:15.786
234.0,-163327.57184834147,-187500.02235174447,-38508.30060342557,-27916.546513622587,51322.9133275644,70075.02109706654,106451.16644515592,48754.58613092735,80695.38541977233,35505.567253299625,-7106.625390842604,19902.440297894515,49576.63858850463,25729.76359483762,-16317.153432029896,-52834.87472949919,-0.074,0.908,0.442,192.0,0.0,0.0,0.0,0.0,0.0,0.0,0.0,0.0,0.0,1695412755.786124,0.0,2023-09-22 14:59:15.786
236.0,-163209.24171319505,-187500.02235174447,-38473.47658556421,-27899.93916749229,51350.04834533315,70080.40786748027,106525.97773384785,48768.93595086765,80666.52931768053,35461.19904055584,-7100.344550650662,19900.763917060365,49503.92836379152,25723.01336801212,-16306.916333069365,-52899.18069829711,-0.074,0.908,0.442,192.0,0.0,0.0,0.0,0.0,0.0,0.0,0.0,0.0,0.0,1695412755.786127,0.0,2023-09-22 14:59:15.786
238.0,-163110.67052014716,-187500.02235174447,-38497.99644923168,-27911.562074609054,51336.25731900422,70067.98029756312,106460.50947433824,48749.400526213714,80702.67208846475,35492.133854881984,-7103.294980918763,19894.12544895714,49572.99525415841,25721.292283689058,-16305.530524913136,-52846.83291278278,-0.074,0.908,0.442,192.0,0.0,0.0,0.0,0.0,0.0,0.0,0.0,0.0,0.0,1695412755.78613,0.0,2023-09-22 14:59:15.786
240.0,-162988.965271588,-187500.02235174447,-38468.246277361664,-27888.830350498003,51359.48078149329,70085.4370099827,106532.68325718444,48771.32758752437,80668.25040200358,35455.67815967538,-7100.88099251759,19895.93594025802,49500.575602123216,25721.49344938916,-16295.60635037498,-52918.716122951046,-0.074,0.908,0.442,192.0,0.0,0.0,0.0,0.0,0.0,0.0,0.0,0.0,0.0,1695412755.846451,0.0,2023-09-22 14:59:15.846
242.0,-162901.27937808985,-187500.02235174447,-38493.32493464052,-27908.94692050778,51346.2709005202,70064.71694287265,106468.62315757552,48741.93504356564,80700.97335588615,35493.45260780485,-7095.40481512604,19900.22747519344,49575.78922221533,25725.8743913024,-16292.119478239953,-52856.04183149837,-0.072,0.908,0.448,192.0,126.5,96.0,14.0,48.0,7.0,0.0,0.0,0.0,0.0,1695412755.846463,0.0,2023-09-22 14:59:15.846
244.0,-162808.36317638913,-187500.02235174447,-38503.18205394531,-27916.032423500117,51370.32137755411,70064.76164636156,106525.642457681,48738.04584003042,80670.73144563811,35451.99012184025,-7085.860620243624,19907.93882703052,49495.68057008751,25736.491469918667,-16277.769658299643,-52950.12032391076,-0.072,0.908,0.448,192.0,0.0,0.0,0.0,0.0,0.0,0.0,0.0,0.0,0.0,1695412755.846466,0.0,2023-09-22 14:59:15.846
246.0,-162664.37323860804,-187500.02235174447,-38477.61165828844,-27898.195731424777,51349.37779299948,70077.54684418999,106487.0856984956,48748.12647677976,80705.55546349949,35493.54201478267,-7094.600152325649,19906.530667129835,49586.42865257605,25727.90840004783,-16283.290539180103,-52887.24486675797,-0.072,0.908,0.448,192.0,0.0,0.0,0.0,0.0,0.0,0.0,0.0,0.0,0.0,1695412755.84647,0.0,2023-09-22 14:59:15.846
248.0,-162552.86038552053,-187500.02235174447,-38496.02949571962,-27908.365775151942,51376.78103170169,70074.90933834427,106520.97094308984,48743.47731393306,80673.05602706147,35466.04936910264,-7087.939332477968,19908.721138086457,49499.97210502292,25728.310731448026,-16272.852274519477,-52960.26801589347,-0.072,0.908,0.448,192.0,0.0,0.0,0.0,0.0,0.0,0.0,0.0,0.0,0.0,1695412755.846473,0.0,2023-09-22 14:59:15.846
250.0,-162378.4720752802,-187500.02235174447,-38435.74684092365,-27871.79832122306,51373.36121480003,70100.56914097896,106508.81159410616,48772.46752649159,80720.17350437326,35503.7791137432,-7086.620579555104,19903.468478139457,49597.20219340351,25725.51676339111,-16271.533521596612,-52892.6316371717,-0.072,0.908,0.448,192.0,0.0,0.0,0.0,0.0,0.0,0.0,0.0,0.0,0.0,1695412755.846476,0.0,2023-09-22 14:59:15.846
252.0,-162323.95617055372,-187500.02235174447,-38521.57753963203,-27935.43373768732,51390.75087198626,70062.8393963384,106511.82907960762,48714.01771474096,80664.96469556865,35463.30010453464,-7066.369899078596,19923.69680687151,49506.47646265942,25743.264048488625,-16250.41112308635,-52968.94049274213,-0.07,0.904,0.446,192.0,126.5,104.0,14.0,32.0,6.5,120.0,0.0,0.0,0.0,1695412755.846479,0.0,2023-09-22 14:59:15.846
254.0,-162132.13349963826,-187500.02235174447,-38431.38825075486,-27877.408609081343,51363.68290945088,70106.17942883723,106528.88346062702,48763.97386359857,80720.26291135108,35499.129950896495,-7077.657530028526,19916.52189690136,49591.949533456514,25745.454519445244,-16259.418876101838,-52937.13396038222,-0.07,0.904,0.446,192.0,0.0,0.0,0.0,0.0,0.0,0.0,0.0,0.0,0.0,1695412755.846482,0.0,2023-09-22 14:59:15.846
0.0,-162068.58749015184,-187500.02235174447,-38511.7874755606,-27926.98477828321,51363.59350247306,70069.61197490836,106490.37140493053,48715.18000545264,80668.20569851466,35477.2252413303,-7076.651701528037,19917.840649824226,49510.65623887256,25746.23683050118,-16268.471332606236,-52974.03669047794,-0.07,0.904,0.446,192.0,0.0,0.0,0.0,0.0,0.0,0.0,0.0,0.0,0.0,1695412755.906825,0.0,2023-09-22 14:59:15.906
2.0,-161871.3109935893,-187500.02235174447,-38404.65556438632,-27859.527213517096,51344.28159526368,70114.47192603015,106526.60358269258,48774.32272128138,80712.05982113598,35496.58185202859,-7086.821745255202,19913.88439105563,49577.53265828284,25737.96668505272,-16282.150600212884,-52949.42741983264,-0.07,0.904,0.446,192.0,0.0,0.0,0.0,0.0,0.0,0.0,0.0,0.0,0.0,1695412755.906836,0.0,2023-09-22 14:59:15.906
4.0,-161812.436498694,-187500.02235174447,-38498.37642888742,-27917.462935145253,51340.23592951727,70064.24755623908,106469.56193084264,48717.661049087175,80675.9394020962,35477.64992447495,-7083.871314987102,19918.533553902336,49506.16353823704,25734.435109428778,-16291.337167184016,-52973.72376605556,-0.07,0.904,0.446,192.0,0.0,0.0,0.0,0.0,0.0,0.0,0.0,0.0,0.0,1695412755.90684,0.0,2023-09-22 14:59:15.906
6.0,-161604.140592115,-187500.02235174447,-38380.29216293003,-27844.1715650763,51333.06101954711,70114.71779521917,106524.41311173596,48787.24202957655,80715.39023105982,35495.576023528105,-7086.397062110551,19910.442222409514,49562.15465809759,25725.82968781349,-16299.674367865846,-52956.89290248072,-0.072,0.908,0.444,192.0,126.5,96.0,14.0,48.0,6.5,112.0,0.0,0.0,0.0,1695412755.906843,0.0,2023-09-22 14:59:15.906
8.0,-161550.36229495553,-187500.02235174447,-38490.26274565014,-27908.835161785504,51335.40795271492,70063.97933530562,106454.16157891291,48724.366572423765,80677.86165211936,35486.36710481252,-7078.663358529015,19917.348911446206,49504.21893646944,25740.49243217617,-16301.820135333555,-52970.52746659845,-0.072,0.908,0.444,192.0,0.0,0.0,0.0,0.0,0.0,0.0,0.0,0.0,0.0,1695412755.906846,0.0,2023-09-22 14:59:15.906
10.0,-161357.37733332842,-187500.02235174447,-38384.96367752119,-27850.11712910141,51340.794723128645,70105.19595208121,106528.57053620464,48777.20609631611,80714.16088511478,35491.03861940368,-7082.954893464434,19907.20121946349,49537.970070596944,25737.787871097076,-16303.98825454572,-52978.43998413563,-0.072,0.908,0.444,192.0,0.0,0.0,0.0,0.0,0.0,0.0,0.0,0.0,0.0,1695412755.90685,0.0,2023-09-22 14:59:15.906
12.0,-161304.56016118053,-187500.02235174447,-38495.940088741794,-27919.25107470168,51329.64120264545,70051.17178573273,106443.65625901894,48709.614421083264,80688.83635864692,35490.83745370358,-7085.502992332339,19905.61424560717,49508.86809931613,25741.2747432321,-16309.240914492715,-52983.98321676055,-0.072,0.908,0.444,192.0,0.0,0.0,0.0,0.0,0.0,0.0,0.0,0.0,0.0,1695412755.906853,0.0,2023-09-22 14:59:15.906
14.0,-161100.46638255913,-187500.02235174447,-38372.82668028196,-27841.08702434147,51336.79376087114,70105.06184161447,106534.6949141854,48783.9116196527,80697.33002153994,35484.15428211144,-7100.12103320611,19893.589007090213,49524.91665183505,25732.870487316908,-16312.683083138834,-53012.459339196605,-0.072,0.908,0.444,192.0,0.0,0.0,0.0,0.0,0.0,0.0,0.0,0.0,0.0,1695412755.967318,0.0,2023-09-22 14:59:15.967
16.0,-161048.4538732116,-187500.02235174447,-38488.09462643798,-27913.32786242102,51334.75975212571,70048.780149076,106431.78748271316,48710.88847051722,80675.96175384066,35486.478863534794,-7098.399948883051,19893.00786173437,49518.34523896519,25725.695577346756,-16316.929914585344,-52992.4545279091,-0.074,0.902,0.446,192.0,126.5,88.0,14.0,24.0,6.5,120.0,0.0,0.0,0.0,1695412755.96733,0.0,2023-09-22 14:59:15.967
18.0,-160850.48447257097,-187500.02235174447,-38382.99672400913,-27847.23375406668,51352.484685478776,70100.03269911202,106530.71630367237,48773.60746545881,80700.50396925259,35471.100863349544,-7096.835326771179,19894.661890824067,49514.50073891888,25731.171754738305,-16314.18065001734,-53033.80525515143,-0.074,0.902,0.446,192.0,0.0,0.0,0.0,0.0,0.0,0.0,0.0,0.0,0.0,1695412755.967334,0.0,2023-09-22 14:59:15.967
20.0,-160767.02305877485,-187500.02235174447,-38466.14521338287,-27891.311394132543,51342.82873187408,70069.34375397488,106446.98666894276,48727.78638932543,80693.91020463828,35484.534261767185,-7095.74009129287,19897.36645190316,49531.66687866055,25739.68776937577,-16307.18455400283,-53007.854879838815,-0.074,0.902,0.446,192.0,0.0,0.0,0.0,0.0,0.0,0.0,0.0,0.0,0.0,1695412755.967337,0.0,2023-09-22 14:59:15.967
22.0,-160584.8116379752,-187500.02235174447,-38375.1065582164,-27835.946123116748,51369.49436300926,70107.96756839367,106541.82512066665,48780.3129887954,80687.15997781277,35469.89386914895,-7098.891687261068,19887.21875992045,49516.735913364406,25729.09304250396,-16297.550952142592,-53046.00930762402,-0.074,0.902,0.446,192.0,0.0,0.0,0.0,0.0,0.0,0.0,0.0,0.0,0.0,1695412755.96734,0.0,2023-09-22 14:59:15.967
24.0,-160499.49502938928,-187500.02235174447,-38447.906189907335,-27878.593251537477,51352.28351977868,70077.03275406752,106452.3287358676,48733.77665683945,80698.8499401629,35491.19508161487,-7092.767309280313,19896.338271658216,49555.35972778317,25736.08913851847,-16290.756021828178,-53005.99968504902,-0.074,0.902,0.446,192.0,0.0,0.0,0.0,0.0,0.0,0.0,0.0,0.0,0.0,1695412755.967344,0.0,2023-09-22 14:59:15.967
26.0,-160321.30692259158,-187500.02235174447,-38363.1036714439,-27823.205628777225,51368.86851416451,70121.46802204466,106549.04473412572,48787.39849178773,80679.8956608648,35467.88221214798,-7096.902382004546,19893.834876279223,49511.2373842284,25733.80926058403,-16288.230274704729,-53060.96262466462,-0.07,0.9,0.446,192.0,126.5,104.0,14.0,16.0,6.5,120.0,0.0,0.0,0.0,1695412755.967347,0.0,2023-09-22 14:59:15.967
28.0,-160212.11865092738,-187500.02235174447,-38402.80036959653,-27840.3717685189,51338.2689760052,70096.61288221036,106449.31125036613,48758.27416876247,80702.22505357565,35505.567253299625,-7102.177393695998,19886.54820758679,49577.93498968303,25730.054167515536,-16297.193324231306,-52982.15037371521,-0.07,0.9,0.446,192.0,0.0,0.0,0.0,0.0,0.0,0.0,0.0,0.0,0.0,1695412755.96735,0.0,2023-09-22 14:59:15.967
30.0,-160096.85070477138,-187500.02235174447,-38384.47193914318,-27838.337759773465,51360.46425824932,70098.46807700016,106521.30621925669,48758.47533446256,80667.9374775812,35464.328284779585,-7091.090928446166,19901.41211764957,49498.65335210006,25738.57018215301,-16284.7434025697,-53071.98203468109,-0.07,0.9,0.446,192.0,0.0,0.0,0.0,0.0,0.0,0.0,0.0,0.0,0.0,1695412756.027405,0.0,2023-09-22 14:59:16.027
32.0,-159968.12700845327,-187500.02235174447,-38393.88202355886,-27839.432995251776,51326.9142898219,70088.52155071755,106447.41135208742,48746.62890990126,80704.86255942137,35504.04733467667,-7097.952913993945,19892.493771611906,49578.69494899452,25734.23394372868,-16298.623835876446,-53012.459339196605,-0.07,0.9,0.446,192.0,0.0,0.0,0.0,0.0,0.0,0.0,0.0,0.0,0.0,1695412756.027417,0.0,2023-09-22 14:59:16.027
34.0,-159849.77452156242,-187500.02235174447,-38388.65171535632,-27840.93056213028,51351.45650523383,70084.5429402045,106498.59684689008,48744.79606685592,80673.45835846166,35459.7685289107,-7088.54282957826,19900.27217868235,49494.96531426493,25735.68680711828,-16296.388661430916,-53095.29490414797,-0.07,0.9,0.446,192.0,0.0,0.0,0.0,0.0,0.0,0.0,0.0,0.0,0.0,1695412756.027421,0.0,2023-09-22 14:59:16.027
36.0,-159708.42208962704,-187500.02235174447,-38377.90052627332,-27827.22894277918,51329.06005728961,70083.78298089303,106436.14607288197,48747.05359304591,80710.87517867985,35493.45260780485,-7096.053015715243,19885.587082575214,49580.28192285084,25726.746109336156,-16311.587847660525,-53032.77707490648,-0.07,0.898,0.446,192.0,126.5,104.0,14.0,8.0,6.5,120.0,0.0,0.0,0.0,1695412756.027431,0.0,2023-09-22 14:59:16.027
38.0,-159590.13665796956,-187500.02235174447,-38386.19302346624,-27828.07830906848,51348.79664764365,70080.96666109165,106475.97688150132,48747.00888955699,80661.790747856,35454.7170346638,-7092.2308674133865,19891.353832644683,49492.84189854168,25725.65087385784,-16308.972693559252,-53107.67777057621,-0.07,0.898,0.446,192.0,0.0,0.0,0.0,0.0,0.0,0.0,0.0,0.0,0.0,1695412756.027434,0.0,2023-09-22 14:59:16.027
40.0,-159421.64920826547,-187500.02235174447,-38345.71401425768,-27801.904416311318,51325.43907468785,70088.52155071755,106432.59214551355,48760.73286065256,80700.07928610794,35503.01915443172,-7102.669132074015,19886.03411746432,49587.83681247674,25718.43126039878,-16322.584905932536,-53024.43987422465,-0.07,0.898,0.446,192.0,0.0,0.0,0.0,0.0,0.0,0.0,0.0,0.0,0.0,1695412756.027437,0.0,2023-09-22 14:59:16.027
42.0,-159350.6153643865,-187500.02235174447,-38414.2668145021,-27851.972323891205,51349.84717963305,70050.90356479926,106451.18879690036,48713.458921129575,80649.89961980577,35450.02316832819,-7081.278512630286,19906.88829504112,49477.35213963415,25739.01721704212,-16310.13498427093,-53132.75642785507,-0.07,0.898,0.446,192.0,0.0,0.0,0.0,0.0,0.0,0.0,0.0,0.0,0.0,1695412756.027441,0.0,2023-09-22 14:59:16.027
44.0,-159146.320420065,-187500.02235174447,-38328.547874516,-27788.426314404765,51330.0658857901,70094.1988938092,106451.121741667,48768.9135991232,80703.78967568751,35491.61976475952,-7100.83628902868,19882.5919488182,49579.52196353936,25727.640179114365,-16320.305027998094,-53062.43783979867,-0.07,0.898,0.446,192.0,0.0,0.0,0.0,0.0,0.0,0.0,0.0,0.0,0.0,1695412756.086773,0.0,2023-09-22 14:59:16.086
46.0,-159083.4002594233,-187500.02235174447,-38416.233768014165,-27847.926658144792,51358.09497333706,70053.65282936726,106450.18296839988,48711.53667110642,80650.86074481736,35449.91140960591,-7085.1900679099645,19900.719213571458,49477.82152626771,25743.7781386111,-16302.758908600676,-53136.04213429,-0.074,0.906,0.446,192.0,126.5,88.0,14.0,40.0,6.5,120.0,0.0,0.0,0.0,1695412756.086788,0.0,2023-09-22 14:59:16.086
