Sample Index,EXG Channel 0,EXG Channel 1,EXG Channel 2,EXG Channel 3,EXG Channel 4,EXG Channel 5,EXG Channel 6,EXG Channel 7,EXG Channel 8,EXG Channel 9,EXG Channel 10,EXG Channel 11,EXG Channel 12,EXG Channel 13,EXG Channel 14,EXG Channel 15,Accel Channel 0,Accel Channel 1,Accel Channel 2,Other,Other.1,Other.2,Other.3,Other.4,Other.5,Other.6,Analog Channel 0,Analog Channel 1,Analog Channel 2,Timestamp,Other.7,Timestamp (Formatted)
238.0,-162708.78615484072,-187500.02235174447,-42080.77991971731,-31262.22267892631,51288.31282714759,70019.00762546154,105279.64446301993,48253.57177896163,80602.24570062706,35235.33466283496,-7286.288712774362,19740.278391871263,49418.54469997224,25724.332120934974,-16386.823819497087,-50571.358271999154,0.0,0.0,0.0,192.0,0.0,0.0,0.0,0.0,0.0,0.0,0.0,0.0,0.0,1695412769.405122,0.0,2023-09-22 14:59:29.405
240.0,-162768.24179509186,-187500.02235174447,-42034.15418078353,-31226.549294775643,51303.33319942156,70046.00853276355,105350.61125166553,48279.56685776316,80568.00282812153,35204.53395897555,-7269.144924777142,19757.42217986848,49339.12895192253,25743.174641510803,-16373.23395886826,-50641.67686005555,0.0,0.0,0.0,192.0,0.0,0.0,0.0,0.0,0.0,0.0,0.0,0.0,0.0,1695412769.405129,0.0,2023-09-22 14:59:29.405
242.0,-162832.57011563424,-187500.02235174447,-42007.66736360399,-31205.538654987653,51286.50233584671,70043.30397168445,105289.4568788358,48276.01293039476,80579.08929337136,35230.4172790548,-7292.122518077197,19737.842051725635,49418.94703137244,25725.42735641329,-16390.847133499043,-50540.535216395285,0.0,0.0,0.0,192.0,0.0,0.0,0.0,0.0,0.0,0.0,0.0,0.0,0.0,1695412769.405139,0.0,2023-09-22 14:59:29.405
244.0,-162951.14611996964,-187500.02235174447,-42048.14637281256,-31223.55416101863,51312.408007670405,70020.39343361776,105324.70557984182,48244.45226722387,80547.37216798928,35191.815816380484,-7274.241122512952,19746.78274950776,49325.20381512688,25737.05026353005,-16371.065839656096,-50608.52922302833,0.0,0.0,0.0,192.0,0.0,0.0,0.0,0.0,0.0,0.0,0.0,0.0,0.0,1695412769.405142,0.0,2023-09-22 14:59:29.405
246.0,-162956.44348340554,-187500.02235174447,-41969.60234279661,-31146.59710485901,51298.19229819683,70067.041524296,105306.42185287736,48301.89625047401,80592.00860166653,35248.05280543004,-7271.514209689404,19754.270583900285,49434.88382516907,25736.111490262927,-16370.395287322435,-50521.84915803065,-0.033,0.446,0.236,192.0,126.5,120.0,13.5,112.0,7.0,96.0,0.0,0.0,0.0,1695412769.405146,0.0,2023-09-22 14:59:29.405
248.0,-163126.18263079913,-187500.02235174447,-42064.26198056484,-31218.21209409381,51333.6198131585,70008.85993347883,105291.98262595924,48228.26960423823,80568.40515952172,35196.86731062738,-7240.981726763454,19773.0684009872,49330.30001286269,25745.81214735653,-16349.451702767814,-50589.53024024132,-0.033,0.446,0.236,192.0,0.0,0.0,0.0,0.0,0.0,0.0,0.0,0.0,0.0,1695412769.405149,0.0,2023-09-22 14:59:29.405
250.0,-163193.39432637626,-187500.02235174447,-42013.67998286247,-31196.732067672263,51311.80451057012,70018.64999755025,105291.75910851469,48235.75743863075,80601.03870642647,35217.11799110389,-7259.399564194628,19756.326944390174,49416.35422901562,25737.653760630343,-16357.073647627074,-50557.47783869241,-0.033,0.446,0.236,192.0,0.0,0.0,0.0,0.0,0.0,0.0,0.0,0.0,0.0,1695412769.405152,0.0,2023-09-22 14:59:29.405
252.0,-163337.6524850908,-187500.02235174447,-42080.80227146176,-31231.24316111125,51337.39725797144,70002.91436945372,105298.68814929583,48204.50969988224,80568.00282812153,35187.278412256055,-7229.582337091248,19771.347316664134,49341.60999555708,25752.13769103738,-16342.388551519938,-50634.83722625223,-0.033,0.446,0.236,192.0,0.0,0.0,0.0,0.0,0.0,0.0,0.0,0.0,0.0,1695412769.405155,0.0,2023-09-22 14:59:29.405
254.0,-163383.1159333129,-187500.02235174447,-42010.68484910546,-31183.432779721355,51328.85889158952,70035.14558495827,105317.105986727,48236.472694453325,80600.43520932618,35219.62138648288,-7248.380154178161,19753.890604244545,49431.44165652296,25744.13576652238,-16359.934670917351,-50577.41559474655,-0.033,0.446,0.236,192.0,0.0,0.0,0.0,0.0,0.0,0.0,0.0,0.0,0.0,1695412769.405158,0.0,2023-09-22 14:59:29.405
0.0,-93750.01117587223,-93750.01117587223,-21467.95647954422,-15050.435370258734,25688.971661206684,35023.64129109875,52589.05024397973,24411.92709349717,40282.9620579436,17607.564342923684,-3623.038962249632,9878.040537600582,24693.134390489387,12869.888588176798,-8184.113584055136,-25297.324394860792,-0.0525,0.67,0.351,192.0,126.5,96.0,13.5,120.0,7.0,72.0,0.0,0.0,0.0,1695412769.515676,0.0,2023-09-22 14:59:29.515
2.0,-187500.02235174447,-187500.02235174447,-42870.75762400122,-30054.71438821726,51348.05904007662,70078.84324536839,105154.54174930356,48866.92599855972,80706.18131234424,35343.18182983182,-7224.910822500089,19740.077226171165,49487.94686650597,25973.95640301185,-16291.31481543956,-51050.82554230995,-0.0525,0.67,0.351,192.0,0.0,0.0,0.0,0.0,0.0,0.0,0.0,0.0,0.0,1695412769.575238,0.0,2023-09-22 14:59:29.575
4.0,-187500.02235174447,-187500.02235174447,-42977.08487237512,-30126.284673963157,51360.12898208249,70025.9813697316,105109.14535631482,48804.94461118515,80660.20377399967,35313.90104459537,-7208.057607180787,19748.079150686164,49407.54764170023,25978.49380713628,-16285.659824092369,-51077.87115310087,-0.0525,0.67,0.351,192.0,0.0,0.0,0.0,0.0,0.0,0.0,0.0,0.0,0.0,1695412769.575246,0.0,2023-09-22 14:59:29.575
6.0,-187500.02235174447,-187500.02235174447,-42868.16482164441,-30061.263449342663,51348.95310985483,70076.74218138959,105155.1228946594,48870.09994627237,80713.69149848122,35344.90291415488,-7218.227650907952,19739.406673837504,49478.179154179,25978.49380713628,-16303.161240000874,-51034.37465839084,-0.0525,0.67,0.351,192.0,0.0,0.0,0.0,0.0,0.0,0.0,0.0,0.0,0.0,1695412769.57525,0.0,2023-09-22 14:59:29.575
8.0,-187500.02235174447,-187500.02235174447,-42969.26176181576,-30124.451830917817,51365.40399377394,70031.77047154552,105108.49715572562,48810.68900951016,80666.2387450026,35301.07114327802,-7216.215993906974,19723.33576957414,49420.534005228765,25965.08276046309,-16297.17097248685,-51047.07044924146,-0.07,0.888,0.47,192.0,126.5,104.0,13.5,96.0,7.0,88.0,0.0,0.0,0.0,1695412769.575253,0.0,2023-09-22 14:59:29.575
10.0,-187500.02235174447,-187500.02235174447,-42849.79168770214,-30046.980684635724,51362.542970483664,70083.11242855935,105179.17337169332,48884.38271097931,80695.92186163925,35284.307334936544,-7232.219842936975,19700.08995534062,49481.196639680464,25945.81555674262,-16306.670463880357,-51000.40000681877,-0.07,0.888,0.47,192.0,0.0,0.0,0.0,0.0,0.0,0.0,0.0,0.0,0.0,1695412769.575257,0.0,2023-09-22 14:59:29.575
12.0,-187500.02235174447,-187500.02235174447,-42942.59613068058,-30098.769676538668,51360.79953441615,70044.28744844049,105101.90339111132,48833.13016094329,80685.55065221198,35261.50855559213,-7212.639714794125,19711.489345012826,49440.53881651626,25951.98463821228,-16304.70351036829,-50994.14151837129,-0.07,0.888,0.47,192.0,0.0,0.0,0.0,0.0,0.0,0.0,0.0,0.0,0.0,1695412769.57526,0.0,2023-09-22 14:59:29.575
14.0,-187500.02235174447,-187500.02235174447,-42846.32716731157,-30045.99720787969,51379.73146196979,70079.37968723533,105175.328871647,48883.13101328981,80706.91891991126,35256.72528227869,-7225.536671344837,19694.61377794907,49464.94692146146,25936.450175815844,-16309.151507514896,-50971.94623612717,-0.07,0.888,0.47,192.0,0.0,0.0,0.0,0.0,0.0,0.0,0.0,0.0,0.0,1695412769.575264,0.0,2023-09-22 14:59:29.575
16.0,-187500.02235174447,-187500.02235174447,-42923.46303742684,-30082.698772275304,51368.332072297584,70053.40696017825,105107.5583824585,48846.72002157212,80679.2921637645,35262.0226457146,-7221.37924687615,19704.67206295396,49452.80992422222,25955.13623418048,-16296.99215853121,-50957.08232606439,-0.07,0.888,0.47,192.0,0.0,0.0,0.0,0.0,0.0,0.0,0.0,0.0,0.0,1695412769.634618,0.0,2023-09-22 14:59:29.634
18.0,-187500.02235174447,-187500.02235174447,-42820.93558561034,-30026.37237624793,51379.21737184732,70095.02590835404,105190.37159566542,48904.70044668919,80697.66529770677,35257.194668912256,-7227.52597660136,19699.73232742933,49458.19669463595,25952.23050740129,-16299.719071354755,-50948.00751781554,-0.06,0.886,0.466,192.0,127.0,16.0,13.5,88.0,7.0,72.0,0.0,0.0,0.0,1695412769.634632,0.0,2023-09-22 14:59:29.634
20.0,-187500.02235174447,-187500.02235174447,-42908.17444421941,-30076.216766383262,51364.1746478289,70051.6858758552,105086.41363220378,48850.09513498487,80695.31836453895,35265.80009052755,-7223.681476555047,19702.79451641971,49468.9255319745,25948.631876543983,-16304.412937690371,-50894.67625554517,-0.06,0.886,0.466,192.0,0.0,0.0,0.0,0.0,0.0,0.0,0.0,0.0,0.0,1695412769.634636,0.0,2023-09-22 14:59:29.634
22.0,-187500.02235174447,-187500.02235174447,-42819.28155652065,-30028.719309415737,51380.24555209227,70088.63330943981,105328.77359733268,48899.73835942011,80693.46316974917,35244.20830538372,-7215.388979362128,19713.72451945836,49437.20840659242,25959.584231327088,-16294.801687574589,-50938.61978514431,-0.06,0.886,0.466,192.0,0.0,0.0,0.0,0.0,0.0,0.0,0.0,0.0,0.0,1695412769.63464,0.0,2023-09-22 14:59:29.634
24.0,-187500.02235174447,-187500.02235174447,-42857.59244651705,-30041.728024688724,51346.58382494257,70072.49534994308,105425.31078163514,48877.90070508728,80692.30087903749,35287.77185532711,-7223.614421321681,19707.71190019988,49484.30353215976,25957.684333048383,-16313.71126338378,-50839.37803976274,-0.06,0.886,0.466,192.0,0.0,0.0,0.0,0.0,0.0,0.0,0.0,0.0,0.0,1695412769.634643,0.0,2023-09-22 14:59:29.634
26.0,-187500.02235174447,-187500.02235174447,-42787.16209973837,-30006.16639926033,51366.05219436315,70098.13280083332,105572.25114968434,48916.07748461694,80680.543861454,35257.73111077918,-7214.405502606095,19717.278446826756,49432.11220885661,25965.038056974183,-16307.743347614212,-50876.79485998093,-0.06,0.886,0.466,192.0,0.0,0.0,0.0,0.0,0.0,0.0,0.0,0.0,0.0,1695412769.634647,0.0,2023-09-22 14:59:29.634
28.0,-187500.02235174447,-187500.02235174447,-42850.88692318046,-30052.56862074955,51348.23785403226,70058.79373059199,105500.34558777162,48867.52949566001,80689.68572493622,35285.20140471475,-7213.690246783525,19717.9042956715,49478.33561639018,25964.90394650745,-16312.012530805176,-50812.17596676064,-0.064,0.888,0.46,192.0,127.0,0.0,13.5,96.0,7.0,48.0,0.0,0.0,0.0,1695412769.63465,0.0,2023-09-22 14:59:29.634
30.0,-187500.02235174447,-187500.02235174447,-42774.89099203241,-30003.908873070348,51366.49922925225,70093.08130658642,105608.3715687241,48917.37388579534,80679.22510853113,35267.43176787278,-7213.958467716989,19713.23278108034,49423.97617387488,25960.41124587193,-16316.773452374156,-50861.79683945142,-0.064,0.888,0.46,192.0,0.0,0.0,0.0,0.0,0.0,0.0,0.0,0.0,0.0,1695412769.634653,0.0,2023-09-22 14:59:29.634
32.0,-187500.02235174447,-187500.02235174447,-42813.17953028435,-30029.300454771572,51349.26603427721,70064.47107368363,105522.09383512662,48877.49837368708,80693.77609417154,35309.45304744876,-7212.99734270541,19713.970388647365,49493.69126483098,25956.589097570075,-16325.512984456182,-50762.28687313639,-0.064,0.888,0.46,192.0,0.0,0.0,0.0,0.0,0.0,0.0,0.0,0.0,0.0,1695412769.694444,0.0,2023-09-22 14:59:29.694
34.0,-187500.02235174447,-187500.02235174447,-42774.823936799046,-30001.249015480164,51372.86947642201,70085.90639661628,105604.46001344443,48899.492490231096,80664.56236416845,35272.1256342084,-7212.483252582938,19720.47474628386,49419.17054881699,25965.14981569646,-16320.573248931558,-50825.63171692273,-0.064,0.888,0.46,192.0,0.0,0.0,0.0,0.0,0.0,0.0,0.0,0.0,0.0,1695412769.694451,0.0,2023-09-22 14:59:29.694
36.0,-187500.02235174447,-187500.02235174447,-42790.31369570657,-30013.050736552566,51353.13288606798,70070.41663770874,105537.29302135624,48874.36912946333,80704.549634999,35306.56967241403,-7211.008037448888,19719.513621272283,49500.26267770084,25966.20034768585,-16320.685007653834,-50736.60471875724,-0.064,0.888,0.46,192.0,0.0,0.0,0.0,0.0,0.0,0.0,0.0,0.0,0.0,1695412769.694454,0.0,2023-09-22 14:59:29.694
38.0,-187500.02235174447,-187500.02235174447,-42789.061998017074,-30008.93801557279,51373.07064212211,70071.78009412052,105605.71171113392,48879.44297545469,80661.54487866699,35261.88853524787,-7209.532822314838,19716.71965321537,49410.453368479415,25967.00501048625,-16315.432347706836,-50804.46461492356,-0.064,0.896,0.458,192.0,127.0,0.0,14.0,0.0,7.0,40.0,0.0,0.0,0.0,1695412769.694458,0.0,2023-09-22 14:59:29.694
40.0,-187500.02235174447,-187500.02235174447,-42735.61897702444,-29965.754445285136,51350.13775231096,70092.56721646395,105566.19382693694,48907.91909789075,80709.26585307906,35312.626995161416,-7228.196528935019,19701.52046698576,49516.11006451966,25955.538565580675,-16329.312781013585,-50678.95956980701,-0.064,0.896,0.458,192.0,0.0,0.0,0.0,0.0,0.0,0.0,0.0,0.0,0.0,1695412769.694462,0.0,2023-09-22 14:59:29.694
42.0,-187500.02235174447,-187500.02235174447,-42799.81318710008,-30017.52108544363,51373.76354620022,70053.69753285618,105592.23360922738,48855.2807396985,80659.44381468819,35261.75442478114,-7216.685380540536,19714.573885747657,49408.53111845626,25971.2294901883,-16316.505231440691,-50745.25484386145,-0.064,0.896,0.458,192.0,0.0,0.0,0.0,0.0,0.0,0.0,0.0,0.0,0.0,1695412769.694465,0.0,2023-09-22 14:59:29.694
44.0,-187500.02235174447,-187500.02235174447,-42742.41390733885,-29983.814654805024,51356.15037156944,70076.40690522277,105589.73021384838,48879.42062371023,80704.50493151009,35289.202366972255,-7232.219842936975,19699.82173440716,49497.80398581076,25957.103187692548,-16323.32251349956,-50680.8147645968,-0.064,0.896,0.458,192.0,0.0,0.0,0.0,0.0,0.0,0.0,0.0,0.0,0.0,1695412769.694469,0.0,2023-09-22 14:59:29.694
46.0,-187500.02235174447,-187500.02235174447,-42820.868530376974,-30038.08469034251,51377.51863926872,70043.34867517337,105601.8225075987,48829.55388183044,80652.87240181833,35249.52802056408,-7218.585278819237,19709.74590894531,49403.16669978699,25967.60850758654,-16308.592713903514,-50743.08672464928,-0.064,0.896,0.458,192.0,0.0,0.0,0.0,0.0,0.0,0.0,0.0,0.0,0.0,1695412769.75473,0.0,2023-09-22 14:59:29.754
48.0,-187500.02235174447,-187500.02235174447,-42711.16616859033,-29961.708779538727,51354.56339771312,70096.03173685452,105618.80983338474,48899.44778674219,80706.49423676661,35285.84960530396,-7242.971032019977,19682.47678070984,49500.62030561213,25947.71545502132,-16330.653885680902,-50649.74583980392,-0.064,0.892,0.452,192.0,127.0,0.0,13.5,112.0,7.0,16.0,0.0,0.0,0.0,1695412769.754741,0.0,2023-09-22 14:59:29.754
50.0,-187500.02235174447,-187500.02235174447,-42812.12899829495,-30036.207143808264,51366.29806355215,70034.07270122442,105579.89544628804,48831.543187086965,80661.61193390035,35252.23258164318,-7223.212089921486,19698.86060939558,49411.07921732416,25949.637705044475,-16321.623780920958,-50679.18308725156,-0.064,0.892,0.452,192.0,0.0,0.0,0.0,0.0,0.0,0.0,0.0,0.0,0.0,1695412769.754744,0.0,2023-09-22 14:59:29.754
52.0,-187500.02235174447,-187500.02235174447,-42711.14381684588,-29974.8739570229,51368.08620310858,70081.12312330284,105644.46963601944,48894.21747853965,80708.84116993441,35275.299581921056,-7219.546403830815,19703.085089097636,49483.230648425895,25954.04099870217,-16314.493574439715,-50648.2035694365,-0.064,0.892,0.452,192.0,0.0,0.0,0.0,0.0,0.0,0.0,0.0,0.0,0.0,1695412769.754748,0.0,2023-09-22 14:59:29.754
54.0,-187500.02235174447,-187500.02235174447,-42823.37192575597,-30048.835879425515,51373.18240084439,70026.09312845387,105596.10046101814,48829.66564055272,80651.93362855121,35261.32974163649,-7220.105197442198,19714.70799621439,49408.911098112,25966.267402919224,-16304.055309779083,-50665.481467900456,-0.064,0.892,0.452,192.0,0.0,0.0,0.0,0.0,0.0,0.0,0.0,0.0,0.0,1695412769.754751,0.0,2023-09-22 14:59:29.754
56.0,-187500.02235174447,-187500.02235174447,-42672.16237451582,-29941.79337522905,51353.80343840164,70096.76934442155,105656.04783964728,48937.177531382746,80695.45247500569,35301.294660722575,-7238.701848829013,19702.593350719613,49480.70490130245,25958.06431270413,-16323.41192047738,-50603.9918189039,-0.064,0.892,0.452,192.0,0.0,0.0,0.0,0.0,0.0,0.0,0.0,0.0,0.0,1695412769.754755,0.0,2023-09-22 14:59:29.754
58.0,-187500.02235174447,-187500.02235174447,-42772.83463154252,-30002.500713169666,51348.8189993881,70044.17568971822,105571.37943165058,48883.19806852318,80647.70914884916,35306.21204450274,-7229.694095813525,19716.31732181517,49422.769179674295,25968.36846689802,-16323.389568732926,-50575.85097263468,-0.066,0.898,0.45,192.0,126.5,120.0,14.0,8.0,7.0,8.0,0.0,0.0,0.0,1695412769.754758,0.0,2023-09-22 14:59:29.754
60.0,-187500.02235174447,-187500.02235174447,-42648.78244981557,-29930.595151256937,51355.09983958004,70091.31551877446,105653.1421128681,48960.51275259408,80684.45541673368,35303.663945634835,-7233.203319693008,19705.700243198906,49460.61068303713,25959.2266034158,-16320.260324509183,-50567.446716719474,-0.066,0.898,0.45,192.0,0.0,0.0,0.0,0.0,0.0,0.0,0.0,0.0,0.0,1695412769.754761,0.0,2023-09-22 14:59:29.754
62.0,-187500.02235174447,-187500.02235174447,-42767.403157639885,-30006.680489382805,51347.56730169861,70024.77437553101,105557.5660535772,48889.501260459576,80662.4836519341,35300.110018266445,-7227.615383579181,19709.410632778483,49434.61560423561,25959.60658307154,-16319.098033797509,-50538.322393694216,-0.066,0.898,0.45,192.0,0.0,0.0,0.0,0.0,0.0,0.0,0.0,0.0,0.0,1695412769.814912,0.0,2023-09-22 14:59:29.814
64.0,-187500.02235174447,-187500.02235174447,-42652.20226671723,-29940.251104861632,51362.96765362832,70075.15520753327,105671.60465378818,48955.08127869145,80687.40584700178,35294.54443389707,-7228.509453357394,19715.445603781416,49448.96542417591,25964.2780976627,-16312.32545522755,-50562.03759456129,-0.066,0.898,0.45,192.0,0.0,0.0,0.0,0.0,0.0,0.0,0.0,0.0,0.0,1695412769.814921,0.0,2023-09-22 14:59:29.814
66.0,-187500.02235174447,-187500.02235174447,-42741.117506160444,-29995.348154943964,51348.19315054335,70028.82004127742,105568.58546359368,48895.84915588488,80667.95982932566,35311.88938759439,-7232.242194681429,19715.08797587013,49454.75452598984,25964.18869068488,-16313.353635472493,-50503.18545141047,-0.066,0.898,0.45,192.0,0.0,0.0,0.0,0.0,0.0,0.0,0.0,0.0,0.0,1695412769.814924,0.0,2023-09-22 14:59:29.814
68.0,-187500.02235174447,-187500.02235174447,-42640.33349041146,-29943.87208746339,51360.6207204605,70066.08039928442,105660.58524377173,48931.76840922456,80673.3465997394,35295.773779842115,-7239.439456396039,19707.600141477604,49442.25990083932,25961.595888328065,-16312.213696505272,-50522.16208245303,-0.074,0.908,0.446,192.0,126.5,88.0,14.0,48.0,6.5,120.0,0.0,0.0,0.0,1695412769.814927,0.0,2023-09-22 14:59:29.814
70.0,-187500.02235174447,-187500.02235174447,-42748.9406167198,-30018.70572789976,51349.91423486641,70006.96003520013,105559.0189169668,48841.15443720275,80665.7917101135,35307.88842533689,-7234.499720871416,19715.579714248142,49447.44550555296,25962.355847639545,-16309.50913542618,-50478.95616042092,-0.074,0.908,0.446,192.0,0.0,0.0,0.0,0.0,0.0,0.0,0.0,0.0,0.0,1695412769.814931,0.0,2023-09-22 14:59:29.814
72.0,-187500.02235174447,-187500.02235174447,-42654.45979290722,-29969.844814520457,51364.152296084445,70050.8812130548,105663.75919148437,48886.8414028694,80660.56140191095,35284.39674191437,-7239.953546518511,19712.0034351353,49422.88093839657,25960.85828076104,-16312.683083138834,-50527.43709414448,-0.074,0.908,0.446,192.0,0.0,0.0,0.0,0.0,0.0,0.0,0.0,0.0,0.0,1695412769.814934,0.0,2023-09-22 14:59:29.814
74.0,-187500.02235174447,-187500.02235174447,-42714.85420642546,-30008.40157370586,51338.33603123856,70021.89100049627,105557.58840532166,48837.60050983435,80682.91314636626,35307.62020440343,-7246.726125088468,19704.023862364756,49463.538761560776,25956.454987103345,-16326.94349610132,-50455.9115118875,-0.074,0.908,0.446,192.0,0.0,0.0,0.0,0.0,0.0,0.0,0.0,0.0,0.0,1695412769.814937,0.0,2023-09-22 14:59:29.814
76.0,-187500.02235174447,-187500.02235174447,-42603.0060771711,-29930.371633812385,51351.434153489376,70076.80923662297,105650.48225527792,48908.16496707976,80662.97539031213,35278.987619756175,-7250.972956534977,19697.72067042836,49424.17733957498,25951.694065534364,-16331.436196736837,-50485.8628494576,-0.074,0.908,0.446,192.0,0.0,0.0,0.0,0.0,0.0,0.0,0.0,0.0,0.0,1695412769.875134,0.0,2023-09-22 14:59:29.875
78.0,-187500.02235174447,-187500.02235174447,-42632.17510368527,-29945.794337486543,51337.48666494926,70048.08724499789,105543.0597714257,48876.5372486755,80663.04244554549,35319.265463264644,-7253.163427491597,19696.290158783217,49489.55619210675,25946.41905384291,-16343.059103853597,-50370.14786841248,-0.088,0.906,0.446,192.0,126.5,32.0,14.0,40.0,6.5,120.0,0.0,0.0,0.0,1695412769.875147,0.0,2023-09-22 14:59:29.875
80.0,-187500.02235174447,-187500.02235174447,-42600.54738528102,-29938.798241472035,51364.93460714038,70050.00949502105,105585.63984461306,48885.99203658009,80638.20965745565,35279.00997150064,-7237.494854628427,19715.177382847956,49414.32022027019,25962.24408891727,-16328.66458042438,-50427.03305805124,-0.088,0.906,0.446,192.0,0.0,0.0,0.0,0.0,0.0,0.0,0.0,0.0,0.0,1695412769.875151,0.0,2023-09-22 14:59:29.875
82.0,-187500.02235174447,-187500.02235174447,-42624.50845533711,-29957.46194809222,51343.85691211902,70035.77143380302,105508.83925066463,48880.35939697736,80675.22414627364,35303.37337295692,-7239.774732562868,19719.826545694657,49485.1305467046,25965.26157441873,-16332.03969383713,-50362.145943897485,-0.088,0.906,0.446,192.0,0.0,0.0,0.0,0.0,0.0,0.0,0.0,0.0,0.0,1695412769.875155,0.0,2023-09-22 14:59:29.875
84.0,-187500.02235174447,-187500.02235174447,-42591.8525566879,-29937.34537808244,51358.340842526064,70049.85303280986,105570.91004501702,48947.25816813209,80644.71401509215,35273.44438713126,-7241.965203519489,19707.644844966515,49414.029647592266,25951.89523123446,-16338.678161940355,-50403.675485095446,-0.088,0.906,0.446,192.0,0.0,0.0,0.0,0.0,0.0,0.0,0.0,0.0,0.0,1695412769.875158,0.0,2023-09-22 14:59:29.875
86.0,-187500.02235174447,-187500.02235174447,-42576.76512918057,-29932.1150698799,51342.42640047389,70046.70143684167,105520.59626824812,48979.64584584783,80694.98308837213,35315.75623938516,-7241.093485485731,19709.12006010057,49495.81468055424,25950.732940522783,-16342.030923608652,-50308.591164182566,-0.088,0.906,0.446,192.0,0.0,0.0,0.0,0.0,0.0,0.0,0.0,0.0,0.0,1695412769.875161,0.0,2023-09-22 14:59:29.875
88.0,-187500.02235174447,-187500.02235174447,-42597.82047245747,-29953.393930601356,51369.49436300926,70033.26803842402,105579.40370791004,48993.101596009925,80643.39526216927,35278.004143000144,-7221.446302109516,19728.454319054406,49403.03258932025,25968.01083898674,-16323.344865244017,-50376.7416330268,-0.092,0.91,0.436,192.0,126.5,16.0,14.0,56.0,6.5,80.0,0.0,0.0,0.0,1695412769.875164,0.0,2023-09-22 14:59:29.875
90.0,-187500.02235174447,-187500.02235174447,-42538.81186709546,-29912.44553475923,51349.98129009978,70058.12317825832,105554.68267854246,49049.56210250403,80689.03752434702,35328.966120358244,-7232.219842936975,19713.746871202813,49503.83895681369,25959.09249294907,-16335.28069678315,-50275.4658788998,-0.092,0.91,0.436,192.0,0.0,0.0,0.0,0.0,0.0,0.0,0.0,0.0,0.0,1695412769.875167,0.0,2023-09-22 14:59:29.875
92.0,-187500.02235174447,-187500.02235174447,-42599.09452189142,-29958.60188705944,51371.72953745479,70021.04163420697,105567.60198683765,49026.38334350388,80647.21741047113,35288.285945449585,-7218.562927074782,19725.99562716432,49403.36786548709,25973.06233323364,-16323.143699543918,-50334.51918775072,-0.092,0.91,0.436,192.0,0.0,0.0,0.0,0.0,0.0,0.0,0.0,0.0,0.0,1695412769.934546,0.0,2023-09-22 14:59:29.934
94.0,-187500.02235174447,-187500.02235174447,-42540.93528281871,-29929.812840201004,51354.02695584619,70035.07852972491,105566.35028914812,49068.87400971341,80691.78678891502,35312.71640213924,-7231.281069669852,19716.80906019319,49491.25492468535,25964.56867034062,-16326.94349610132,-50278.28219870117,-0.092,0.91,0.436,192.0,0.0,0.0,0.0,0.0,0.0,0.0,0.0,0.0,0.0,1695412769.934558,0.0,2023-09-22 14:59:29.934
96.0,-187500.02235174447,-187500.02235174447,-42611.32092610847,-29980.64070709237,51364.01818561771,70002.33322409788,105561.18703617896,49024.41638999181,80653.07356751843,35278.31706742252,-7232.845691781723,19715.445603781416,49400.41743521899,25963.16051043993,-16329.938629858332,-50324.05857134564,-0.092,0.91,0.436,192.0,0.0,0.0,0.0,0.0,0.0,0.0,0.0,0.0,0.0,1695412769.934561,0.0,2023-09-22 14:59:29.934
98.0,-187500.02235174447,-187500.02235174447,-42483.51365131303,-29894.51943570607,51349.757772655226,70062.21354749365,105595.00522553983,49092.231582669214,80707.03067863354,35313.252844006165,-7249.989479778944,19696.13369657203,49489.5785438512,25951.31408587862,-16342.366199775484,-50246.609776808,-0.092,0.916,0.44,192.0,126.5,16.0,14.0,80.0,6.5,96.0,0.0,0.0,0.0,1695412769.934565,0.0,2023-09-22 14:59:29.934
100.0,-187500.02235174447,-187500.02235174447,-42561.63299818432,-29944.1179566524,51358.58671171507,70020.75106152905,105560.27061465629,49041.828398922495,80653.65471287427,35292.04103851808,-7233.940927260033,19707.04134786622,49406.87708936657,25955.24799290276,-16335.973600861264,-50252.7118030443,-0.092,0.916,0.44,192.0,0.0,0.0,0.0,0.0,0.0,0.0,0.0,0.0,0.0,1695412769.934568,0.0,2023-09-22 14:59:29.934
102.0,-187500.02235174447,-187500.02235174447,-42429.55654019792,-29857.080263743435,51343.27576676319,70076.60807092287,105608.170403024,49125.78155109663,80697.57589072894,35320.80773363206,-7243.52982563136,19700.06760359617,49476.54747683376,25959.204251671345,-16343.170862575873,-50187.13178481243,-0.092,0.916,0.44,192.0,0.0,0.0,0.0,0.0,0.0,0.0,0.0,0.0,0.0,1695412769.934571,0.0,2023-09-22 14:59:29.934
104.0,-187500.02235174447,-187500.02235174447,-42542.790477608505,-29934.171430369788,51347.41083948742,70016.30306438245,105542.27746036976,49054.345375817466,80660.67316063323,35299.0818380215,-7230.565813847282,19710.12588860105,49401.5573741862,25966.20034768585,-16343.461435253792,-50189.59047670251,-0.092,0.916,0.44,192.0,0.0,0.0,0.0,0.0,0.0,0.0,0.0,0.0,0.0,1695412769.934574,0.0,2023-09-22 14:59:29.934
106.0,-187500.02235174447,-187500.02235174447,-42446.812086917416,-29887.188063524733,51353.13288606798,70045.69560834118,105618.16163279554,49096.97015249373,80706.96362340017,35300.48999792218,-7224.732008544446,19710.86349616808,49448.11605788661,25968.077894220103,-16342.992048620232,-50191.31156102557,-0.092,0.916,0.44,192.0,0.0,0.0,0.0,0.0,0.0,0.0,0.0,0.0,0.0,1695412769.99433,0.0,2023-09-22 14:59:29.994
108.0,-187500.02235174447,-187500.02235174447,-42553.51931494705,-29953.37157885689,51347.7684673987,69992.69962223765,105545.00437319333,49031.25602379513,80666.14933802478,35292.59983212946,-7223.882642255145,19708.404804277998,49412.46502548039,25963.115806951024,-16344.869595154476,-50188.94227611331,-0.084,0.91,0.44,192.0,126.5,48.0,14.0,56.0,6.5,96.0,0.0,0.0,0.0,1695412769.994341,0.0,2023-09-22 14:59:29.994
110.0,-187500.02235174447,-187500.02235174447,-42422.35927848331,-29872.41356043977,51350.13775231096,70045.33798042989,105624.50952822083,49109.26361194415,80696.70417269519,35297.36075369844,-7231.236366180941,19699.03942335122,49450.59710152115,25952.36461786802,-16352.849167925022,-50175.687691651314,-0.084,0.91,0.44,192.0,0.0,0.0,0.0,0.0,0.0,0.0,0.0,0.0,0.0,1695412769.994345,0.0,2023-09-22 14:59:29.994
112.0,-187500.02235174447,-187500.02235174447,-42527.85951231236,-29940.54167753955,51345.421534230896,69992.83373270437,105543.28328887024,49046.58932049148,80666.59637291389,35301.160550255845,-7220.28401139784,19713.836278180635,49420.15402557302,25965.306277907646,-16350.457531268305,-50154.855865818965,-0.084,0.91,0.44,192.0,0.0,0.0,0.0,0.0,0.0,0.0,0.0,0.0,0.0,1695412769.994349,0.0,2023-09-22 14:59:29.994
114.0,-187500.02235174447,-187500.02235174447,-42391.24565020152,-29857.661409099277,51347.94728135435,70050.30006769896,105636.24419405988,49133.73877212272,80684.25425103358,35298.65715487685,-7234.276203426863,19703.46506875337,49437.1189996146,25953.79512951316,-16363.756819219212,-50136.14745570987,-0.084,0.91,0.44,192.0,0.0,0.0,0.0,0.0,0.0,0.0,0.0,0.0,0.0,1695412769.994352,0.0,2023-09-22 14:59:29.994
116.0,-187500.02235174447,-187500.02235174447,-42486.06175018093,-29919.620444729386,51337.866644605005,70005.30600611043,105538.72353300138,49077.412376095344,80680.07447482043,35303.03809679009,-7228.263584168385,19711.13171710154,49428.20065357693,25957.304353392647,-16360.515816273191,-50090.50519353214,-0.084,0.91,0.44,192.0,0.0,0.0,0.0,0.0,0.0,0.0,0.0,0.0,0.0,1695412769.994355,0.0,2023-09-22 14:59:29.994
118.0,-187500.02235174447,-187500.02235174447,-42395.8054060704,-29875.63221164134,51360.03957510467,70040.77822456101,105647.10714186516,49124.77572259614,80679.0909980644,35280.954573268245,-7227.637735323637,19710.81879267917,49412.845005136136,25967.966135497827,-16350.591641735036,-50124.6810108043,-0.084,0.914,0.44,192.0,126.5,48.0,14.0,72.0,6.5,96.0,0.0,0.0,0.0,1695412769.994358,0.0,2023-09-22 14:59:29.994
120.0,-187500.02235174447,-187500.02235174447,-42457.51857251151,-29912.132610336856,51332.65868814691,70012.5256195695,105548.17832090596,49092.25393441367,80684.32130626695,35313.118733539435,-7229.4705783689715,19712.80809793569,49448.56309277572,25969.731923309795,-16359.822912195075,-50057.62577743838,-0.084,0.914,0.44,192.0,0.0,0.0,0.0,0.0,0.0,0.0,0.0,0.0,0.0,1695412769.994361,0.0,2023-09-22 14:59:29.994
122.0,-187500.02235174447,-187500.02235174447,-42346.698623502096,-29845.1444322043,51355.278653535686,70055.19509973469,105647.64358373208,49160.89614163592,80667.57984966993,35296.958422298245,-7233.493892370927,19708.94124614492,49414.92371737048,25959.11484469353,-16359.398229050426,-50081.69860621674,-0.084,0.914,0.44,192.0,0.0,0.0,0.0,0.0,0.0,0.0,0.0,0.0,0.0,1695412770.054658,0.0,2023-09-22 14:59:30.054
124.0,-187500.02235174447,-187500.02235174447,-42415.72081038008,-29895.324098506466,51337.95605158282,70010.26809337952,105545.8537394826,49104.1897659528,80677.90635560827,35302.054620034054,-7234.969107504977,19697.899484384,49456.7214795019,25949.302428877643,-16353.586775492047,-50003.10987271189,-0.084,0.914,0.44,192.0,0.0,0.0,0.0,0.0,0.0,0.0,0.0,0.0,0.0,1695412770.054668,0.0,2023-09-22 14:59:30.054
126.0,-187500.02235174447,-187500.02235174447,-42381.18736519663,-29891.56900543797,51372.467145021816,70015.94543647116,105643.2402900744,49112.12463523443,80677.86165211936,35248.92452346379,-7214.830185750746,19712.09284211312,49391.92377232597,25954.7786062692,-16341.89681314192,-50086.99596965265,-0.084,0.914,0.44,192.0,0.0,0.0,0.0,0.0,0.0,0.0,0.0,0.0,0.0,1695412770.054672,0.0,2023-09-22 14:59:30.054
128.0,-187500.02235174447,-187500.02235174447,-42392.78792056894,-29894.58649093944,51345.756810397725,70011.81036374693,105573.92753051849,49102.62514384093,80708.23767283412,35280.17226221231,-7228.062418468287,19695.41844074946,49472.83708725418,25945.390873597968,-16347.28358355565,-50001.254677922094,-0.09,0.91,0.434,192.0,126.5,24.0,14.0,56.0,6.5,72.0,0.0,0.0,0.0,1695412770.054675,0.0,2023-09-22 14:59:30.054
130.0,-187500.02235174447,-187500.02235174447,-42387.13292922174,-29908.69044169074,51378.41270904693,70008.23408463408,105646.7271622094,49097.26072517165,80675.91705035175,35237.10045064693,-7205.397749590606,19715.33384505914,49388.63806589104,25958.95838248234,-16331.838528137032,-50077.9211614038,-0.09,0.91,0.434,192.0,0.0,0.0,0.0,0.0,0.0,0.0,0.0,0.0,0.0,1695412770.054678,0.0,2023-09-22 14:59:30.054
132.0,-187500.02235174447,-187500.02235174447,-42387.647019344215,-29913.339604537443,51348.70724066583,70005.61893053282,105584.00816726782,49093.37152163643,80722.83336196344,35286.184881470785,-7211.320961871263,19707.309568799683,49480.21316292443,25950.688237033875,-16343.304973042605,-49998.9524482432,-0.09,0.91,0.434,192.0,0.0,0.0,0.0,0.0,0.0,0.0,0.0,0.0,0.0,1695412770.054681,0.0,2023-09-22 14:59:30.054
134.0,-187500.02235174447,-187500.02235174447,-42384.495423376015,-29920.69332846324,51367.39329903046,70006.33418635538,105645.85544417566,49094.556164092566,80675.38060848482,35255.4735845892,-7206.917668213567,19714.46212702538,49395.47769969436,25954.97977196929,-16341.293316041629,-50065.29242578655,-0.09,0.91,0.434,192.0,0.0,0.0,0.0,0.0,0.0,0.0,0.0,0.0,0.0,1695412770.054684,0.0,2023-09-22 14:59:30.054
136.0,-187500.02235174447,-187500.02235174447,-42346.72097524655,-29895.77113339557,51346.78499064267,70022.27098015201,105607.23162975688,49114.6950858468,80717.22307410516,35302.92633806781,-7218.6076305636925,19702.839219908623,49490.13733746259,25947.491937576764,-16349.965792890289,-49971.81743047445,-0.09,0.91,0.434,192.0,0.0,0.0,0.0,0.0,0.0,0.0,0.0,0.0,0.0,1695412770.114934,0.0,2023-09-22 14:59:30.114
138.0,-187500.02235174447,-187500.02235174447,-42369.13977493522,-29915.641834216334,51370.20961883183,70009.64224453477,105645.5872232422,49099.25003042818,80675.6935329072,35270.4269016298,-7200.055682665788,19721.61468525108,49400.30567649671,25955.627972558497,-16335.124234571962,-50029.32846895796,-0.09,0.906,0.43,192.0,126.5,24.0,14.0,40.0,6.5,56.0,0.0,0.0,0.0,1695412770.114946,0.0,2023-09-22 14:59:30.114
140.0,-187500.02235174447,-187500.02235174447,-42311.40521900717,-29883.09769428941,51346.09208656455,70025.5343348425,105619.94977235196,49118.33842019301,80719.59235901742,35313.76693412864,-7212.550307816304,19714.596237492115,49494.428872398006,25946.86608873201,-16344.66842945438,-49936.45697074616,-0.09,0.906,0.43,192.0,0.0,0.0,0.0,0.0,0.0,0.0,0.0,0.0,0.0,1695412770.114949,0.0,2023-09-22 14:59:30.114
142.0,-187500.02235174447,-187500.02235174447,-42365.16116442218,-29922.950854653223,51364.286406551175,69995.73945948356,105632.53380448028,49078.41820459583,80684.79069290051,35277.71357032222,-7199.921572199056,19734.37753133506,49393.13076652656,25965.95447849685,-16329.268077524672,-50003.48985236762,-0.09,0.906,0.43,192.0,0.0,0.0,0.0,0.0,0.0,0.0,0.0,0.0,0.0,1695412770.114953,0.0,2023-09-22 14:59:30.114
144.0,-187500.02235174447,-187500.02235174447,-42273.921343555616,-29865.842147569914,51338.17956902738,70034.40797739124,105633.15965332504,49123.68048711783,80730.76823124508,35319.31016675355,-7219.233479408441,19719.580676505648,49488.32684616171,25957.08083594809,-16340.935688130345,-49925.19169154069,-0.09,0.906,0.43,192.0,0.0,0.0,0.0,0.0,0.0,0.0,0.0,0.0,0.0,1695412770.114956,0.0,2023-09-22 14:59:30.114
146.0,-187500.02235174447,-187500.02235174447,-42364.49061208852,-29936.13838388185,51358.76552567072,69987.89399717975,105616.06056881674,49056.06646014052,80688.50108248008,35289.045904761064,-7205.934191457533,19734.489290057336,49396.77410087277,25966.692086063875,-16325.960019345286,-49967.86117170587,-0.09,0.906,0.43,192.0,0.0,0.0,0.0,0.0,0.0,0.0,0.0,0.0,0.0,1695412770.114959,0.0,2023-09-22 14:59:30.114
148.0,-187500.02235174447,-187500.02235174447,-42230.42484884559,-29848.13956596131,51339.319507994594,70054.1892712342,105661.50166529436,49137.87384484695,80737.4066993483,35324.09344006699,-7219.546403830815,19721.882906184543,49487.25396242785,25959.38306562699,-16330.251554280703,-49917.8826711038,-0.086,0.902,0.434,192.0,126.5,40.0,14.0,24.0,6.5,72.0,0.0,0.0,0.0,1695412770.114962,0.0,2023-09-22 14:59:30.114
150.0,-187500.02235174447,-187500.02235174447,-42323.81043717986,-29913.853694659912,51348.32726101008,70000.23216011908,105598.89442907508,49071.958550448246,80681.72850391013,35303.97687005721,-7222.183909676542,19717.099632871108,49411.07921732416,25950.42001610041,-16326.675275167856,-49904.20340349715,-0.086,0.902,0.434,192.0,0.0,0.0,0.0,0.0,0.0,0.0,0.0,0.0,0.0,1695412770.114965,0.0,2023-09-22 14:59:30.114
152.0,-187500.02235174447,-187500.02235174447,-42237.286834393366,-29876.81685409747,51349.28838602166,70028.55182034396,105663.24510136188,49105.62027759794,80720.21820786217,35294.81265483054,-7224.821415522268,19715.42325203696,49463.78463074978,25949.95062946685,-16315.454699451291,-49902.45996742964,-0.086,0.902,0.434,192.0,0.0,0.0,0.0,0.0,0.0,0.0,0.0,0.0,0.0,1695412770.17521,0.0,2023-09-22 14:59:30.175
154.0,-187500.02235174447,-187500.02235174447,-42336.17095186364,-29939.98288392817,51354.18341805738,69988.83277044687,105613.06543505972,49047.66220422533,80689.37280051384,35277.89238427787,-7211.902107227101,19725.32507483066,49415.46015923741,25959.04778946016,-16303.27299872315,-49928.94678460918,-0.086,0.902,0.434,192.0,0.0,0.0,0.0,0.0,0.0,0.0,0.0,0.0,0.0,1695412770.175219,0.0,2023-09-22 14:59:30.175
156.0,-187500.02235174447,-187500.02235174447,-42214.0633719043,-29872.838243584425,51359.81605766012,70037.11253847033,105685.08275569472,49110.62706835593,80719.36884157287,35294.81265483054,-7227.391866134628,19713.18807759143,49471.6747965425,25945.480280575783,-16303.675330123346,-49896.00031328206,-0.086,0.902,0.434,192.0,0.0,0.0,0.0,0.0,0.0,0.0,0.0,0.0,0.0,1695412770.175223,0.0,2023-09-22 14:59:30.175
158.0,-187500.02235174447,-187500.02235174447,-42321.865835412245,-29944.475584563686,51358.81022915962,69983.31188956641,105616.8205281282,49038.050954109545,80693.26200404907,35277.91473602232,-7212.706770027491,19721.346464317616,49430.30171755573,25952.588135312577,-16290.867780550454,-49903.64460988577,-0.092,0.904,0.438,192.0,126.5,16.0,14.0,32.0,6.5,88.0,0.0,0.0,0.0,1695412770.175226,0.0,2023-09-22 14:59:30.175
160.0,-187500.02235174447,-187500.02235174447,-42181.273362788364,-29859.58365912243,51364.24170306227,70046.05323625245,105717.09045375472,49119.25484171568,80723.81683871947,35276.41716914382,-7224.463787610983,19713.0539671247,49472.65827329854,25942.440443329862,-16293.617045118455,-49893.22869696959,-0.092,0.904,0.438,192.0,0.0,0.0,0.0,0.0,0.0,0.0,0.0,0.0,0.0,1695412770.175229,0.0,2023-09-22 14:59:30.175
162.0,-187500.02235174447,-187500.02235174447,-42253.782421801385,-29897.06753457398,51354.45163899084,70016.3701196158,105633.6290399586,49074.50664931615,80697.7994081735,35287.32482043801,-7217.110063685187,19714.9538654034,49464.61164529463,25940.138213650967,-16291.94066428431,-49843.898396956734,-0.092,0.904,0.438,192.0,0.0,0.0,0.0,0.0,0.0,0.0,0.0,0.0,0.0,1695412770.175232,0.0,2023-09-22 14:59:30.175
164.0,-187500.02235174447,-187500.02235174447,-42135.13936223261,-29832.560400075963,51371.64013047697,70059.6878003702,105731.70849462847,49137.02447855765,80701.1521698418,35281.73688432418,-7227.280107412352,19712.18224909094,49461.1247731596,25945.86026023153,-16287.716184582256,-49852.5708738054,-0.092,0.904,0.438,192.0,0.0,0.0,0.0,0.0,0.0,0.0,0.0,0.0,0.0,1695412770.175235,0.0,2023-09-22 14:59:30.175
166.0,-187500.02235174447,-187500.02235174447,-42220.075991162776,-29886.025772813056,51352.3729267565,70014.64903529275,105634.65722020356,49078.082928429,80701.04041111951,35291.571651884515,-7230.252889424907,19705.65553970999,49460.253055125846,25936.09254790456,-16295.852219563987,-49805.587506960335,-0.092,0.904,0.438,192.0,0.0,0.0,0.0,0.0,0.0,0.0,0.0,0.0,0.0,1695412770.234773,0.0,2023-09-22 14:59:30.234
168.0,-187500.02235174447,-187500.02235174447,-42112.63115556612,-29823.552647060475,51373.31651131112,70057.69849511367,105750.12633205966,49136.30922273508,80693.8431494049,35265.084834704976,-7226.184871934041,19710.05883336769,49434.74971470234,25948.76598701072,-16287.582074115524,-49847.27351036949,-0.098,0.906,0.444,192.0,126.0,120.0,14.0,40.0,6.5,112.0,0.0,0.0,0.0,1695412770.234795,0.0,2023-09-22 14:59:30.234
170.0,-187500.02235174447,-187500.02235174447,-42181.96626686648,-29867.160900492778,51351.635319189474,70017.19713416065,105648.04591513229,49086.86716399994,80709.08703912342,35294.90206180836,-7224.754360288902,19708.89654265601,49477.55330533425,25949.682408533383,-16290.979539272732,-49776.57494265735,-0.098,0.906,0.444,192.0,0.0,0.0,0.0,0.0,0.0,0.0,0.0,0.0,0.0,1695412770.234801,0.0,2023-09-22 14:59:30.234
172.0,-187500.02235174447,-187500.02235174447,-42119.56019634727,-29847.51371711656,51375.037595634174,70035.19028844718,105750.19338729304,49111.29762068959,80688.14345456881,35264.88366900488,-7225.044932966821,19718.351330560607,49426.1666448315,25951.649362045453,-16288.498495638192,-49838.7127922431,-0.098,0.906,0.444,192.0,0.0,0.0,0.0,0.0,0.0,0.0,0.0,0.0,0.0,1695412770.234806,0.0,2023-09-22 14:59:30.234
174.0,-187500.02235174447,-187500.02235174447,-42139.63206286813,-29858.75664457758,51349.73542091077,70027.70245405466,105679.56187481426,49099.09356821699,80694.35723952738,35294.36561994143,-7235.237328438441,19706.1025745991,49477.21802916742,25942.46279507432,-16298.154449242886,-49786.14148928422,-0.098,0.906,0.444,192.0,0.0,0.0,0.0,0.0,0.0,0.0,0.0,0.0,0.0,1695412770.234812,0.0,2023-09-22 14:59:30.234
176.0,-187500.02235174447,-187500.02235174447,-42071.21337309043,-29825.16197266125,51377.94332241337,70052.71405610014,105765.66079445613,49135.28104249013,80676.56525094096,35271.61154408593,-7235.684363327547,19702.79451641971,49415.05782783721,25941.05463517364,-16303.384757445428,-49817.16571058818,-0.098,0.906,0.444,192.0,0.0,0.0,0.0,0.0,0.0,0.0,0.0,0.0,0.0,1695412770.234817,0.0,2023-09-22 14:59:30.234
178.0,-187500.02235174447,-187500.02235174447,-42093.45335882346,-29845.16678394876,51356.373889014,70028.46241336613,105685.48508709492,49107.9895625102,80710.2493298351,35297.07018102052,-7233.5162441153825,19698.27946403974,49480.81666002473,25937.70187350534,-16308.436251692328,-49739.00166022798,-0.094,0.9,0.44,192.0,126.5,8.0,14.0,16.0,6.5,96.0,0.0,0.0,0.0,1695412770.234823,0.0,2023-09-22 14:59:30.234
180.0,-187500.02235174447,-187500.02235174447,-42068.37470154461,-29838.081280956423,51376.44575553486,70035.21264019163,105764.34204153324,49124.44044642931,80689.75278016958,35255.562991567014,-7226.497796356416,19709.500039756305,49404.0607695652,25949.81651900012,-16303.27299872315,-49812.87417565277,-0.094,0.9,0.44,192.0,0.0,0.0,0.0,0.0,0.0,0.0,0.0,0.0,0.0,1695412770.234827,0.0,2023-09-22 14:59:30.234
182.0,-187500.02235174447,-187500.02235174447,-42074.40967254754,-29848.20662119468,51348.52842671018,70022.6286080633,105702.60652334768,49112.97400152374,80716.73133572713,35282.45214014675,-7230.834034780745,19704.448545509404,49480.68254955799,25941.27815261819,-16312.839545350022,-49751.0939539783,-0.094,0.9,0.44,192.0,0.0,0.0,0.0,0.0,0.0,0.0,0.0,0.0,0.0,1695412770.294471,0.0,2023-09-22 14:59:30.294
184.0,-187500.02235174447,-187500.02235174447,-42070.45341377895,-29852.408749152277,51359.88311289348,70022.04746270746,105755.5131024734,49119.72422834924,80673.50306195057,35247.22579088519,-7225.156691689097,19707.51073449978,49400.50684219681,25939.490013061764,-16312.32545522755,-49816.4057512767,-0.094,0.9,0.44,192.0,0.0,0.0,0.0,0.0,0.0,0.0,0.0,0.0,0.0,1695412770.294481,0.0,2023-09-22 14:59:30.294
186.0,-187500.02235174447,-187500.02235174447,-42017.52448290879,-29818.165876646744,51330.22234800128,70042.16403271724,105717.22456422144,49148.26740601867,80721.55931252948,35295.01382053064,-7234.723238315969,19697.743022172814,49488.37154965062,25936.51723104921,-16328.977504846753,-49733.88311074771,-0.094,0.9,0.44,192.0,0.0,0.0,0.0,0.0,0.0,0.0,0.0,0.0,0.0,1695412770.294484,0.0,2023-09-22 14:59:30.294
188.0,-187500.02235174447,-187500.02235174447,-42055.90242813855,-29851.55938286297,51366.87920890799,70021.93570398519,105757.211835052,49126.22858598574,80661.41076820025,35258.73693927967,-7226.989534734433,19714.596237492115,49385.374711200566,25949.771815511205,-16305.32935921304,-49799.7537016575,-0.092,0.9,0.44,192.0,126.5,16.0,14.0,16.0,6.5,96.0,0.0,0.0,0.0,1695412770.294488,0.0,2023-09-22 14:59:30.294
190.0,-187500.02235174447,-187500.02235174447,-42002.43705540145,-29828.11240292936,51349.15427555493,70033.82683203541,105746.81827388029,49149.4520484748,80697.46413200667,35301.80875084505,-7233.985630748944,19714.149202603006,49482.02365422531,25947.51428932122,-16307.497478425204,-49731.58088106882,-0.092,0.9,0.44,192.0,0.0,0.0,0.0,0.0,0.0,0.0,0.0,0.0,0.0,1695412770.294491,0.0,2023-09-22 14:59:30.294
192.0,-187500.02235174447,-187500.02235174447,-42055.164820571525,-29868.837281326927,51374.52350551171,70009.73165151259,105760.38578276466,49119.25484171568,80666.39520721379,35284.15087272535,-7214.360799117184,19726.777938220257,49398.07050205118,25959.204251671345,-16297.483896909223,-49800.96069585809,-0.092,0.9,0.44,192.0,0.0,0.0,0.0,0.0,0.0,0.0,0.0,0.0,0.0,1695412770.294494,0.0,2023-09-22 14:59:30.294
194.0,-187500.02235174447,-187500.02235174447,-41946.15536286299,-29801.647937494272,51361.2242175608,70058.14553000279,105785.8667714437,49182.73379596875,80726.16377188728,35327.46855347974,-7229.269412668874,19709.32122580066,49492.17134620802,25950.08473993358,-16300.7472515997,-49734.59836657028,-0.092,0.9,0.44,192.0,0.0,0.0,0.0,0.0,0.0,0.0,0.0,0.0,0.0,1695412770.294497,0.0,2023-09-22 14:59:30.294
196.0,-187500.02235174447,-187500.02235174447,-42022.06188703321,-29855.694455587203,51370.94722639886,70015.16312541523,105746.52770120236,49137.67267914685,80648.96084653866,35299.0818380215,-7231.236366180941,19709.656501967493,49398.24931600682,25946.28494337618,-16301.618969633457,-49767.5448378974,-0.092,0.9,0.44,192.0,0.0,0.0,0.0,0.0,0.0,0.0,0.0,0.0,0.0,1695412770.354773,0.0,2023-09-22 14:59:30.354
198.0,-187500.02235174447,-187500.02235174447,-41932.02906036724,-29812.354423088364,51369.60612173154,70042.40990190624,105779.7200417185,49177.6599499774,80689.77513191404,35320.91949235433,-7239.998250007421,19702.19101931942,49469.5290290748,25945.055597431136,-16304.949379557298,-49727.46816008904,-0.102,0.902,0.44,192.0,126.0,104.0,14.0,24.0,6.5,96.0,0.0,0.0,0.0,1695412770.354787,0.0,2023-09-22 14:59:30.354
200.0,-187500.02235174447,-187500.02235174447,-42015.49047416335,-29865.19394698071,51376.06577587912,70011.40803234674,105748.33819250324,49132.1965017553,80647.46327966015,35299.46181767724,-7227.727142301458,19718.7536619608,49406.161833544,25959.830100516094,-16294.08643175202,-49774.406823445184,-0.102,0.902,0.44,192.0,0.0,0.0,0.0,0.0,0.0,0.0,0.0,0.0,0.0,1695412770.354791,0.0,2023-09-22 14:59:30.354
202.0,-187500.02235174447,-187500.02235174447,-41911.17488279044,-29814.32137660043,51380.24555209227,70048.31076244244,105802.92115246312,49181.70561572381,80709.91405366827,35320.89714060988,-7235.013810993888,19716.56319100418,49475.58635182218,25955.069178947117,-16297.103917253486,-49739.44869511709,-0.102,0.902,0.44,192.0,0.0,0.0,0.0,0.0,0.0,0.0,0.0,0.0,0.0,1695412770.354794,0.0,2023-09-22 14:59:30.354
204.0,-187500.02235174447,-187500.02235174447,-41994.613944842094,-29864.992781280613,51372.51184851073,70014.38081435929,105752.22739603846,49139.23730125872,80680.25328877608,35304.66977413533,-7222.966220732477,19724.18513586344,49422.702124440926,25960.724170294307,-16290.063117750064,-49770.31645420986,-0.102,0.902,0.44,192.0,0.0,0.0,0.0,0.0,0.0,0.0,0.0,0.0,0.0,1695412770.354798,0.0,2023-09-22 14:59:30.354
206.0,-187500.02235174447,-187500.02235174447,-41868.170126458426,-29789.57799548841,51372.333034555086,70063.17467250522,105820.93665849409,49211.23227014927,80705.66722222176,35310.19065501579,-7234.991459249432,19707.91306589998,49463.69522377196,25952.94576322386,-16298.579132387536,-49751.60804410077,-0.102,0.902,0.44,192.0,0.0,0.0,0.0,0.0,0.0,0.0,0.0,0.0,0.0,1695412770.354801,0.0,2023-09-22 14:59:30.354
208.0,-187500.02235174447,-187500.02235174447,-41959.09702290261,-29846.44083338271,51361.000700116245,70022.4274423632,105727.95340156,49150.68139441984,80676.0958643074,35310.592986415984,-7225.313153900284,19715.847935181613,49429.87703441108,25959.94185923837,-16301.753080100189,-49734.59836657028,-0.1,0.902,0.446,192.0,126.0,112.0,14.0,24.0,6.5,120.0,0.0,0.0,0.0,1695412770.354804,0.0,2023-09-22 14:59:30.354
210.0,-187500.02235174447,-187500.02235174447,-41844.20905640234,-29789.53329199949,51370.25432232074,70061.20771899316,105815.99692296944,49202.24686887823,80702.42621927575,35306.256747991654,-7222.7203515434685,19720.6535602395,49440.091781627154,25965.462740118837,-16302.043652778108,-49753.932625524125,-0.1,0.902,0.446,192.0,0.0,0.0,0.0,0.0,0.0,0.0,0.0,0.0,0.0,1695412770.354807,0.0,2023-09-22 14:59:30.354
212.0,-187500.02235174447,-187500.02235174447,-41922.30605152918,-29834.415594865757,51350.00364184423,70024.21558191962,105712.195421719,49151.19548454231,80691.54091972602,35316.65030916337,-7225.760188789391,19718.37368230506,49434.77206644679,25958.444292359865,-16313.063062794576,-49722.75194200897,-0.1,0.902,0.446,192.0,0.0,0.0,0.0,0.0,0.0,0.0,0.0,0.0,0.0,1695412770.415124,0.0,2023-09-22 14:59:30.415
214.0,-187500.02235174447,-187500.02235174447,-41825.65710850443,-29789.57799548841,51364.152296084445,70055.6868381127,105805.20103039754,49193.75320598522,80696.03362036153,35301.20525374475,-7226.833072523245,19719.938304416934,49420.37754301757,25968.90490876495,-16310.582019160036,-49757.57595987034,-0.1,0.902,0.446,192.0,0.0,0.0,0.0,0.0,0.0,0.0,0.0,0.0,0.0,1695412770.415133,0.0,2023-09-22 14:59:30.415
216.0,-187500.02235174447,-187500.02235174447,-41919.60149045008,-29853.727502075137,51350.383621499976,70006.80357298894,105704.70758732648,49126.80973134157,80686.51177722357,35319.10900105345,-7222.630944565648,19725.01215040829,49433.36390654611,25969.821330287617,-16314.024187806152,-49732.47495084703,-0.1,0.902,0.446,192.0,0.0,0.0,0.0,0.0,0.0,0.0,0.0,0.0,0.0,1695412770.415136,0.0,2023-09-22 14:59:30.415
218.0,-187500.02235174447,-187500.02235174447,-41838.93404471088,-29820.15518190327,51369.06967986461,70037.09018672588,105803.56935305231,49164.67358644887,80693.06083834897,35303.55218691256,-7226.520148100871,19718.12781311605,49413.04617083624,25972.592946600074,-16310.313798226573,-49782.22993400454,-0.1,0.902,0.45,192.0,126.0,112.0,14.0,24.0,7.0,8.0,0.0,0.0,0.0,1695412770.415145,0.0,2023-09-22 14:59:30.415
220.0,-187500.02235174447,-187500.02235174447,-41910.1914060344,-29870.4019034388,51355.72568842479,70003.92019795421,105728.46749168247,49113.97983002423,80700.70513495269,35320.56186444305,-7220.596935820215,19720.2065253504,49450.01595616531,25974.98458325679,-16302.445984178305,-49757.33009068133,-0.1,0.902,0.45,192.0,0.0,0.0,0.0,0.0,0.0,0.0,0.0,0.0,0.0,1695412770.415148,0.0,2023-09-22 14:59:30.415
222.0,-187500.02235174447,-187500.02235174447,-41842.97971045729,-29841.389339135807,51380.89375268147,70034.22916343561,105830.0338184874,49157.319862523065,80685.28243127852,35295.30439320856,-7229.850558024712,19711.712862457374,49411.12392081308,25965.172167440916,-16301.84248707801,-49813.701190197615,-0.1,0.902,0.45,192.0,0.0,0.0,0.0,0.0,0.0,0.0,0.0,0.0,0.0,1695412770.415151,0.0,2023-09-22 14:59:30.415
224.0,-187500.02235174447,-187500.02235174447,-41853.59678907356,-29844.406824637277,51352.43998198986,70037.87249778182,105757.30124202982,49160.046775346615,80708.64000423432,35318.95253884227,-7237.517206372882,19702.772164675254,49472.7253285319,25960.031266216192,-16307.6986441253,-49750.40104990018,-0.1,0.902,0.45,192.0,0.0,0.0,0.0,0.0,0.0,0.0,0.0,0.0,0.0,1695412770.415155,0.0,2023-09-22 14:59:30.415
226.0,-187500.02235174447,-187500.02235174447,-41787.94971560833,-29808.42051606423,51377.33982531307,70062.10178877137,105837.05226624636,49200.70459851082,80690.46803599216,35291.21402397323,-7237.919537773077,19702.347481530607,49411.48154872436,25956.96907722581,-16307.98921680322,-49784.08512879433,-0.1,0.902,0.45,192.0,0.0,0.0,0.0,0.0,0.0,0.0,0.0,0.0,0.0,1695412770.475398,0.0,2023-09-22 14:59:30.475
228.0,-187500.02235174447,-187500.02235174447,-41804.31119254961,-29824.24555113859,51362.20769431683,70041.62759085032,105763.67148919958,49176.11767960998,80709.75759145709,35323.22172203323,-7236.645488339125,19702.01220536377,49478.67089255701,25960.12067319401,-16308.100975525496,-49710.05615115835,-0.098,0.9,0.45,192.0,126.0,120.0,14.0,16.0,7.0,8.0,0.0,0.0,0.0,1695412770.475413,0.0,2023-09-22 14:59:30.475
230.0,-187500.02235174447,-187500.02235174447,-41779.54545969313,-29815.126039400824,51384.425328305406,70047.57315487543,105835.44294064556,49184.231362847255,80678.93453585322,35286.92248903781,-7228.800026035313,19706.884885655032,49401.71383639739,25961.43942611688,-16301.618969633457,-49785.04625380591,-0.098,0.9,0.45,192.0,0.0,0.0,0.0,0.0,0.0,0.0,0.0,0.0,0.0,1695412770.475417,0.0,2023-09-22 14:59:30.475
232.0,-187500.02235174447,-187500.02235174447,-41771.00709331121,-29820.42340283673,51367.16978158591,70035.83848903638,105783.3633760647,49169.81448767358,80715.23376884863,35320.740678398695,-7234.142092960131,19703.19684781991,49480.235514668886,25960.38889412748,-16307.519830169658,-49716.515805305935,-0.098,0.9,0.45,192.0,0.0,0.0,0.0,0.0,0.0,0.0,0.0,0.0,0.0,1695412770.47542,0.0,2023-09-22 14:59:30.475
234.0,-187500.02235174447,-187500.02235174447,-41784.99928534023,-29841.188173435712,51387.37575857351,70020.81811676241,105827.7315888085,49155.218798544265,80678.17457654174,35279.479358134195,-7224.508491099893,19714.864458425574,49390.69442638093,25961.03709471668,-16303.854144078989,-49799.41842549067,-0.098,0.9,0.45,192.0,0.0,0.0,0.0,0.0,0.0,0.0,0.0,0.0,0.0,1695412770.475424,0.0,2023-09-22 14:59:30.475
236.0,-187500.02235174447,-187500.02235174447,-41728.73994454622,-29811.90738819926,51356.373889014,70037.55957335944,105795.29920760384,49177.61524648849,80716.1501903713,35315.82329461852,-7240.802912807812,19697.698318683902,49480.63784606908,25946.508460820733,-16322.584905932536,-49727.64697404468,-0.098,0.9,0.45,192.0,0.0,0.0,0.0,0.0,0.0,0.0,0.0,0.0,0.0,1695412770.475427,0.0,2023-09-22 14:59:30.475
238.0,-187500.02235174447,-187500.02235174447,-41780.57363993808,-29857.214374210165,51373.94236015587,70004.36723284332,105810.8783734892,49136.555091924085,80664.5847159129,35286.36369542643,-7230.118778958175,19710.9529031459,49383.05012977721,25962.601716828554,-16314.448870950804,-49798.03261733445,-0.098,0.896,0.448,192.0,126.0,120.0,14.0,0.0,7.0,0.0,0.0,0.0,0.0,1695412770.47543,0.0,2023-09-22 14:59:30.475
240.0,-187500.02235174447,-187500.02235174447,-41694.921755185336,-29806.118286385336,51349.93658661087,70038.07366348192,105804.15049840814,49177.72700521076,80706.87421642235,35329.52491396963,-7244.826226809768,19699.687623940423,49484.0800147152,25960.679466805395,-16326.161185045385,-49742.8908637632,-0.098,0.896,0.448,192.0,0.0,0.0,0.0,0.0,0.0,0.0,0.0,0.0,0.0,1695412770.475433,0.0,2023-09-22 14:59:30.475
242.0,-187500.02235174447,-187500.02235174447,-41759.47359317227,-29855.314475931464,51359.21256055982,70005.75304099954,105796.10387040424,49129.96132730977,80659.60027689938,35299.86414907744,-7234.924404016067,19708.09187985562,49395.2094787609,25968.502577364758,-16325.200060033809,-49802.27944878095,-0.098,0.896,0.448,192.0,0.0,0.0,0.0,0.0,0.0,0.0,0.0,0.0,0.0,1695412770.534673,0.0,2023-09-22 14:59:30.534
244.0,-187500.02235174447,-187500.02235174447,-41644.69738539426,-29786.26993730902,51336.50318819323,70047.17082347523,105811.54892582283,49184.231362847255,80718.13949562782,35337.839762907,-7253.230482724963,19689.674042424445,49478.179154179,25955.538565580675,-16345.786016677144,-49735.55949158186,-0.098,0.896,0.448,192.0,0.0,0.0,0.0,0.0,0.0,0.0,0.0,0.0,0.0,1695412770.534683,0.0,2023-09-22 14:59:30.534
246.0,-187500.02235174447,-187500.02235174447,-41741.05575574109,-29859.27073470005,51348.95310985483,69993.48193329357,105776.21081783902,49107.9895625102,80651.17366923972,35301.51817816713,-7241.652279097114,19701.252246052296,49384.48064142235,25966.11094070804,-16337.873499139963,-49793.22699227656,-0.098,0.896,0.448,192.0,0.0,0.0,0.0,0.0,0.0,0.0,0.0,0.0,0.0,1695412770.534687,0.0,2023-09-22 14:59:30.534
248.0,-187500.02235174447,-187500.02235174447,-41645.077365050005,-29812.33207134391,51341.17470278439,70027.41188137673,105817.85211775923,49149.18382754133,80699.4981407521,35319.57838768702,-7251.017660023887,19692.803286648188,49457.861418469125,25968.457873875843,-16345.160167832397,-49775.85968683478,-0.096,0.9,0.44,192.0,126.5,0.0,14.0,16.0,6.5,96.0,0.0,0.0,0.0,1695412770.53469,0.0,2023-09-22 14:59:30.534
250.0,-187500.02235174447,-187500.02235174447,-41746.64369185492,-29884.751723379104,51344.46040921932,69979.17681684218,105771.62871022568,49079.42403309632,80659.10853852137,35293.806826330045,-7245.72029658798,19696.334862272128,49390.24739149182,25972.436484388887,-16336.197118305818,-49830.80027470592,-0.096,0.9,0.44,192.0,0.0,0.0,0.0,0.0,0.0,0.0,0.0,0.0,0.0,1695412770.534694,0.0,2023-09-22 14:59:30.534
252.0,-187500.02235174447,-187500.02235174447,-41634.34852771146,-29827.732423273617,51343.5663394411,70017.9794452166,105837.72281858002,49132.15179826639,80684.00838184457,35297.584271142994,-7270.977767822477,19664.46127467886,49451.26765385481,25953.593963813066,-16343.886118398445,-49818.0597803664,-0.096,0.9,0.44,192.0,0.0,0.0,0.0,0.0,0.0,0.0,0.0,0.0,0.0,1695412770.534697,0.0,2023-09-22 14:59:30.534
254.0,-187500.02235174447,-187500.02235174447,-41692.55247027308,-29852.878135785835,51331.138769523954,69997.03586066197,105777.10488761724,49108.03426599912,80645.20575347016,35276.484224377185,-7279.471430715494,19648.32331518213,49411.23567953536,25943.80389974164,-16343.52849048716,-49821.16667284568,-0.096,0.9,0.44,192.0,0.0,0.0,0.0,0.0,0.0,0.0,0.0,0.0,0.0,1695412770.534701,0.0,2023-09-22 14:59:30.534
0.0,-187500.02235174447,-187500.02235174447,-41594.78594002556,-29810.14160038729,51349.35544125503,70021.04163420697,105843.08723724927,49143.37237398295,80657.94624780968,35261.46385210322,-7301.085567603775,19625.05514920416,49432.40278153453,25935.26553335971,-16350.591641735036,-49811.86834715228,-0.096,0.9,0.44,192.0,0.0,0.0,0.0,0.0,0.0,0.0,0.0,0.0,0.0,1695412770.594498,0.0,2023-09-22 14:59:30.594
2.0,-187500.02235174447,-187500.02235174447,-41717.94405197431,-29898.185121796745,51349.31073776612,69962.14478756723,105769.70646020252,49056.021756651615,80624.93272124919,35235.69229074625,-7301.309085048329,19621.97060846932,49394.11424328259,25940.76406249572,-16340.958039874798,-49844.94892894613,-0.094,0.896,0.444,192.0,126.5,8.0,14.0,0.0,6.5,112.0,0.0,0.0,0.0,1695412770.594507,0.0,2023-09-22 14:59:30.594
4.0,-187500.02235174447,-187500.02235174447,-41592.930745235775,-29827.91123722926,51359.48078149329,70019.36525337282,105873.06092656386,49131.39183895491,80622.67519505922,35206.47856074316,-7324.130216137197,19590.991090654265,49406.38535098855,25929.7223007348,-16343.752007931713,-49884.1762404652,-0.094,0.896,0.444,192.0,0.0,0.0,0.0,0.0,0.0,0.0,0.0,0.0,0.0,1695412770.59451,0.0,2023-09-22 14:59:30.594
6.0,-187500.02235174447,-187500.02235174447,-41683.455310279765,-29884.43879895673,51346.96380459831,69976.36049704082,105779.07184112928,49074.75251850516,80603.29623261646,35201.20354905171,-7334.16614939763,19576.507160247227,49413.22498479188,25924.357882065524,-16347.842377167031,-49849.53103655947,-0.094,0.896,0.444,192.0,0.0,0.0,0.0,0.0,0.0,0.0,0.0,0.0,0.0,1695412770.594514,0.0,2023-09-22 14:59:30.594
8.0,-187500.02235174447,-187500.02235174447,-41568.0085501681,-29820.691623770195,51364.621682718,70022.78507027449,105886.42726974814,49141.13719953742,80601.30692735994,35163.362045688875,-7351.801675772867,19563.16316880741,49398.38342647356,25918.76994595169,-16350.837510924044,-49887.28313294448,-0.094,0.896,0.444,192.0,0.0,0.0,0.0,0.0,0.0,0.0,0.0,0.0,0.0,1695412770.594517,0.0,2023-09-22 14:59:30.594
10.0,-187500.02235174447,-187500.02235174447,-41626.324251452,-29853.749853819598,51342.58286268507,69993.43722980467,105791.1641348796,49106.424940398334,80613.35451762135,35171.16280450378,-7350.259405405451,19557.977564093777,49423.819711663695,25914.634873227464,-16350.61399347949,-49845.95475744662,-0.094,0.896,0.444,192.0,0.0,0.0,0.0,0.0,0.0,0.0,0.0,0.0,0.0,1695412770.594521,0.0,2023-09-22 14:59:30.594
12.0,-187500.02235174447,-187500.02235174447,-41566.354521078414,-29838.86359201236,51369.2261420758,70004.85897122133,105879.72174641154,49126.58621389702,80595.62958426829,35132.740155785104,-7351.779324028412,19555.116540803498,49379.138574497534,25918.434669784867,-16352.245670824728,-49914.12757803531,-0.096,0.892,0.442,192.0,126.5,0.0,13.5,112.0,6.5,104.0,0.0,0.0,0.0,1695412770.594524,0.0,2023-09-22 14:59:30.594
14.0,-187500.02235174447,-187500.02235174447,-41596.68583830426,-29851.35821716288,51335.72087713729,69991.0679448924,105792.95227443604,49107.85545204347,80617.10961068983,35164.904316056294,-7350.304108894362,19552.68020065787,49430.27936581128,25922.61444599801,-16362.728638974268,-49867.524190846,-0.096,0.892,0.442,192.0,0.0,0.0,0.0,0.0,0.0,0.0,0.0,0.0,0.0,1695412770.594527,0.0,2023-09-22 14:59:30.594
16.0,-187500.02235174447,-187500.02235174447,-41535.37500326336,-29826.793650006493,51357.82675240359,70008.79287824547,105878.40299348868,49139.349059981,80598.84823546985,35129.320338883444,-7344.045620446876,19565.331288019574,49366.48748713583,25920.356919808022,-16365.209682608804,-49936.56872946844,-0.096,0.892,0.442,192.0,0.0,0.0,0.0,0.0,0.0,0.0,0.0,0.0,0.0,1695412770.654739,0.0,2023-09-22 14:59:30.654
18.0,-187500.02235174447,-187500.02235174447,-41568.388529823846,-29855.694455587203,51346.96380459831,69988.9668809136,105801.40123384014,49111.87876604543,80620.90940724724,35166.87126956836,-7341.274004134418,19577.96002363682,49423.55149073023,25931.91277169141,-16364.829702953066,-49891.03822601298,-0.096,0.892,0.442,192.0,0.0,0.0,0.0,0.0,0.0,0.0,0.0,0.0,0.0,1695412770.65475,0.0,2023-09-22 14:59:30.654
20.0,-187500.02235174447,-187500.02235174447,-41546.08148885745,-29860.81300506747,51366.387470529975,69992.4761047931,105860.4321909466,49124.79807434059,80597.26126161353,35141.01030123357,-7336.669544776624,19585.090230118065,49353.81404802967,25932.51626879171,-16361.700458729323,-49978.70176776669,-0.096,0.892,0.442,192.0,0.0,0.0,0.0,0.0,0.0,0.0,0.0,0.0,0.0,1695412770.654753,0.0,2023-09-22 14:59:30.654
22.0,-187500.02235174447,-187500.02235174447,-41521.963956590174,-29841.814022280458,51338.693659149845,70005.73068925508,105805.53630656438,49142.21008327128,80639.70722433415,35182.22691800915,-7343.620937302225,19578.094134103558,49438.95184265993,25925.85544894403,-16372.831627468066,-49918.95555483765,-0.102,0.894,0.44,192.0,126.0,104.0,13.5,120.0,6.5,96.0,0.0,0.0,0.0,1695412770.654757,0.0,2023-09-22 14:59:30.654
24.0,-187500.02235174447,-187500.02235174447,-41540.11357308788,-29869.44077842722,51361.49243849426,69984.40712504473,105843.24369946048,49115.27623120263,80602.6703837717,35157.57294387495,-7328.488806305982,19590.409945298423,49357.59149284261,25939.959399695326,-16368.607147766012,-49986.83780274842,-0.102,0.894,0.44,192.0,0.0,0.0,0.0,0.0,0.0,0.0,0.0,0.0,0.0,1695412770.65476,0.0,2023-09-22 14:59:30.654
26.0,-187500.02235174447,-187500.02235174447,-41501.42270343575,-29845.47970837113,51344.25924351922,70006.31183461093,105814.45465260204,49135.39280121241,80650.72663435062,35205.450380498216,-7322.699704492057,19600.915265192423,49437.40957229252,25942.50749856323,-16368.271871599183,-49948.32574705193,-0.102,0.894,0.44,192.0,0.0,0.0,0.0,0.0,0.0,0.0,0.0,0.0,0.0,1695412770.654763,0.0,2023-09-22 14:59:30.654
28.0,-187500.02235174447,-187500.02235174447,-41545.07566035696,-29886.11517979088,51370.433136276384,69982.99896514404,105849.97157454152,49100.63583858441,80612.21457865412,35181.93634533123,-7300.526773992393,19629.816070773133,49351.89179800652,25957.460815603838,-16349.988144634744,-50030.89309106983,-0.102,0.894,0.44,192.0,0.0,0.0,0.0,0.0,0.0,0.0,0.0,0.0,0.0,1695412770.654766,0.0,2023-09-22 14:59:30.654
30.0,-187500.02235174447,-187500.02235174447,-41485.66472359475,-29852.162879963267,51344.90744410842,70008.54700905645,105830.32439116533,49130.7436383657,80668.29510549249,35230.35022382143,-7315.055407888342,19622.28353289169,49450.91002594352,25944.832079986583,-16359.912319172898,-49971.83978221891,-0.102,0.894,0.44,192.0,0.0,0.0,0.0,0.0,0.0,0.0,0.0,0.0,0.0,1695412770.715091,0.0,2023-09-22 14:59:30.715
32.0,-187500.02235174447,-187500.02235174447,-41524.35559324689,-29878.64969714281,51363.86172340653,69994.33129958287,105860.92392932462,49111.811710812064,80624.01629972653,35194.609784437394,-7295.609390212226,19639.852004033568,49358.95494925439,25953.884536490983,-16340.622763707968,-50058.83277163897,-0.092,0.9,0.446,192.0,126.5,16.0,14.0,16.0,6.5,120.0,0.0,0.0,0.0,1695412770.715103,0.0,2023-09-22 14:59:30.715
34.0,-187500.02235174447,-187500.02235174447,-41441.78824922899,-29832.560400075963,51354.85397039104,70025.1767069312,105856.52063566694,49152.000147342704,80670.8879078493,35243.85067747244,-7308.349884551751,19629.0337597172,49457.50379055784,25943.84860323055,-16351.508063257705,-49981.60749454588,-0.092,0.9,0.446,192.0,0.0,0.0,0.0,0.0,0.0,0.0,0.0,0.0,0.0,1695412770.715106,0.0,2023-09-22 14:59:30.715
36.0,-187500.02235174447,-187500.02235174447,-41532.46927648417,-29903.080153832456,51368.73440369778,69980.62968023178,105844.22717621652,49089.437614612296,80617.08725894538,35206.433857254255,-7277.102145803231,19654.715914096345,49353.5011236073,25965.038056974183,-16334.8560136385,-50075.97655963618,-0.092,0.9,0.446,192.0,0.0,0.0,0.0,0.0,0.0,0.0,0.0,0.0,0.0,1695412770.71511,0.0,2023-09-22 14:59:30.715
38.0,-187500.02235174447,-187500.02235174447,-41415.10026634935,-29830.928722730725,51354.40693550193,70034.67619832471,105886.7848976594,49161.07495559156,80684.70128592268,35237.59218902495,-7293.06129134432,19636.09691096508,49438.50480777083,25944.89913521995,-16345.51779574368,-50040.52669293007,-0.092,0.9,0.446,192.0,0.0,0.0,0.0,0.0,0.0,0.0,0.0,0.0,0.0,1695412770.715113,0.0,2023-09-22 14:59:30.715
40.0,-187500.02235174447,-187500.02235174447,-41488.74926432959,-29881.041333799523,51363.05706060613,70001.14858164176,105849.50218790796,49117.01966727015,80641.20479121266,35217.319156803984,-7280.63372142717,19653.08423675111,49365.68282433544,25952.2752108902,-16339.99691486322,-50089.99110340967,-0.092,0.9,0.446,192.0,0.0,0.0,0.0,0.0,0.0,0.0,0.0,0.0,0.0,1695412770.715116,0.0,2023-09-22 14:59:30.715
42.0,-187500.02235174447,-187500.02235174447,-41405.37725751129,-29850.352388662388,51363.14646758395,70016.86185799383,105884.10268832478,49144.333498994536,80680.25328877608,35245.705872262224,-7283.96413135101,19652.61485011755,49432.51454025681,25946.575516054098,-16346.210699821797,-50070.38862352236,-0.09,0.9,0.452,192.0,126.5,24.0,14.0,16.0,7.0,16.0,0.0,0.0,0.0,1695412770.715119,0.0,2023-09-22 14:59:30.715
44.0,-187500.02235174447,-187500.02235174447,-41507.010639549575,-29918.681671462266,51349.44484823285,69967.44215100314,105825.71993180751,49082.55327732006,80656.69455012018,35233.479468045174,-7266.708584631513,19667.143484013497,49377.23867621883,25958.913678993427,-16348.512929500692,-50138.89672027787,-0.09,0.9,0.452,192.0,0.0,0.0,0.0,0.0,0.0,0.0,0.0,0.0,0.0,1695412770.715122,0.0,2023-09-22 14:59:30.715
46.0,-187500.02235174447,-187500.02235174447,-41356.628102854265,-29828.827658751925,51343.7675051412,70031.83752677888,105901.84997342229,49170.59679872952,80702.67208846475,35259.273381146595,-7284.254704028929,19655.095893752088,49436.5155025143,25949.794167255663,-16365.701420986825,-50132.37001089693,-0.09,0.9,0.452,192.0,0.0,0.0,0.0,0.0,0.0,0.0,0.0,0.0,0.0,1695412770.775335,0.0,2023-09-22 14:59:30.775
48.0,-187500.02235174447,-187500.02235174447,-41463.20122041717,-29904.667127688783,51341.8676068625,69978.28274706397,105807.45855658752,49097.01485598265,80656.58279139792,35269.3763696404,-7278.845581870745,19662.539024655704,49397.534060184254,25950.844699245063,-16363.689763985843,-50124.25632765965,-0.09,0.9,0.452,192.0,0.0,0.0,0.0,0.0,0.0,0.0,0.0,0.0,0.0,1695412770.775346,0.0,2023-09-22 14:59:30.775
50.0,-187500.02235174447,-187500.02235174447,-41368.25100997103,-29867.786749337527,51359.65959544893,70011.9221224692,105900.46416526606,49140.3995919704,80682.51081496607,35268.90698300683,-7276.453945214027,19673.75960037227,49409.559298701206,25965.976830241303,-16343.819063165078,-50169.09392703699,-0.09,0.9,0.452,192.0,0.0,0.0,0.0,0.0,0.0,0.0,0.0,0.0,0.0,1695412770.77535,0.0,2023-09-22 14:59:30.775
52.0,-187500.02235174447,-187500.02235174447,-41436.736754982085,-29903.884816632846,51340.95118533984,69994.35365132733,105820.8248997718,49106.424940398334,80662.32718972293,35283.65913434734,-7274.956378335522,19681.068620809157,49408.15113880053,25967.76496979773,-16336.688856683835,-50167.68576713631,-0.09,0.894,0.45,192.0,126.5,24.0,13.5,120.0,7.0,8.0,0.0,0.0,0.0,1695412770.775354,0.0,2023-09-22 14:59:30.775
54.0,-187500.02235174447,-187500.02235174447,-41321.37940184825,-29844.451528126185,51359.99487161575,70041.31466642793,105912.66821773868,49165.29943529361,80681.23676553211,35276.39481739936,-7276.409241725117,19676.642975407,49415.66132493751,25970.67069657692,-16327.301124012603,-50193.300866282094,-0.09,0.894,0.45,192.0,0.0,0.0,0.0,0.0,0.0,0.0,0.0,0.0,0.0,1695412770.775357,0.0,2023-09-22 14:59:30.775
56.0,-187500.02235174447,-187500.02235174447,-41393.59788818334,-29888.9538513367,51344.86274061952,70008.3234916119,105813.2700101459,49120.3947806829,80687.96464061317,35296.73490485369,-7266.328604975773,19688.735269157325,49426.21134832041,25980.50546413725,-16318.47218495276,-50164.80239210158,-0.09,0.894,0.45,192.0,0.0,0.0,0.0,0.0,0.0,0.0,0.0,0.0,0.0,1695412770.77536,0.0,2023-09-22 14:59:30.775
58.0,-187500.02235174447,-187500.02235174447,-41308.99653542001,-29851.179403207232,51366.7227466968,70043.46043389564,105913.76345321698,49159.689147435325,80689.41750400276,35275.903079021344,-7258.281976971863,19699.73232742933,49400.73035964136,25987.658022362957,-16296.45571666428,-50228.48251205475,-0.09,0.894,0.45,192.0,0.0,0.0,0.0,0.0,0.0,0.0,0.0,0.0,0.0,1695412770.775364,0.0,2023-09-22 14:59:30.775
60.0,-187500.02235174447,-187500.02235174447,-41327.41437285118,-29844.920914759747,51338.71601089431,70044.46626239613,105831.3302196658,49156.35873751149,80693.12789358234,35308.31310848154,-7272.117706789698,19685.94130110041,49448.58544452017,25971.676525077408,-16304.457641179282,-50173.89955209489,-0.09,0.894,0.45,192.0,0.0,0.0,0.0,0.0,0.0,0.0,0.0,0.0,0.0,1695412770.83471,0.0,2023-09-22 14:59:30.834
62.0,-187500.02235174447,-187500.02235174447,-41253.7877266154,-29810.14160038729,51362.87824665049,70057.76555034705,105919.21727886406,49185.0583773921,80679.71684690916,35282.630954102395,-7262.729974118469,19687.885902868024,49401.73618814185,25975.319859423624,-16294.51111489667,-50222.96163117429,-0.096,0.902,0.45,192.0,126.5,0.0,14.0,24.0,7.0,8.0,0.0,0.0,0.0,1695412770.834732,0.0,2023-09-22 14:59:30.834
64.0,-187500.02235174447,-187500.02235174447,-41323.65927978269,-29863.09288300191,51349.042516832655,70018.51588708351,105834.23594644498,49131.324783721546,80698.96169888518,35299.23830023269,-7256.851465326723,19693.22796979284,49445.18797936296,25979.2314147033,-16292.36534742896,-50200.16285182988,-0.096,0.902,0.45,192.0,0.0,0.0,0.0,0.0,0.0,0.0,0.0,0.0,0.0,1695412770.834736,0.0,2023-09-22 14:59:30.834
66.0,-187500.02235174447,-187500.02235174447,-41288.43293052113,-29859.76247307807,51371.282502565686,70022.2262766631,105915.57394451783,49138.43263845833,80677.12404455234,35264.74955853815,-7263.6910991300465,19685.427210977938,49387.34166471263,25976.66096409094,-16295.740460841713,-50290.6203616405,-0.096,0.902,0.45,192.0,0.0,0.0,0.0,0.0,0.0,0.0,0.0,0.0,0.0,1695412770.83474,0.0,2023-09-22 14:59:30.834
68.0,-187500.02235174447,-187500.02235174447,-41289.90814565517,-29858.62253411085,51351.79178140066,70024.7296720421,105854.57603389931,49138.45499020279,80711.0539926355,35296.37727694241,-7261.344165962239,19686.008356333776,49457.54849404675,25971.16243495493,-16302.155411500386,-50251.48245709926,-0.096,0.902,0.45,192.0,0.0,0.0,0.0,0.0,0.0,0.0,0.0,0.0,0.0,1695412770.834743,0.0,2023-09-22 14:59:30.834
70.0,-187500.02235174447,-187500.02235174447,-41243.75179335497,-29833.633283809817,51368.19796183085,70041.13585247229,105936.09284592782,49169.23334231775,80673.12308229484,35267.99056148417,-7261.455924684516,19685.494266211303,49393.331932226654,25959.89715574946,-16302.401280689392,-50310.98280083929,-0.096,0.902,0.45,192.0,0.0,0.0,0.0,0.0,0.0,0.0,0.0,0.0,0.0,1695412770.834746,0.0,2023-09-22 14:59:30.834
72.0,-187500.02235174447,-187500.02235174447,-41260.62736041872,-29857.95198177719,51347.03085983168,70013.33028236989,105866.91419683864,49141.07014430406,80715.45728629318,35296.80196008706,-7263.445229941039,19677.82761786313,49465.25984588383,25953.683370790885,-16310.425556948849,-50251.59421582153,-0.098,0.902,0.448,192.0,126.0,120.0,14.0,24.0,7.0,0.0,0.0,0.0,0.0,1695412770.834749,0.0,2023-09-22 14:59:30.834
74.0,-187500.02235174447,-187500.02235174447,-41250.27850273591,-29860.43302541173,51362.96765362832,70014.4255178482,105928.62736327975,49149.58615894153,80679.94036435371,35250.15386940883,-7257.745535104935,19677.53704518521,49371.71779533837,25959.025437715703,-16307.542181914114,-50359.32962409611,-0.098,0.902,0.448,192.0,0.0,0.0,0.0,0.0,0.0,0.0,0.0,0.0,0.0,1695412770.834752,0.0,2023-09-22 14:59:30.834
76.0,-187500.02235174447,-187500.02235174447,-41233.73821183899,-29866.847976070403,51337.62077541599,70009.64224453477,105880.50405746748,49143.43942921632,80733.4504405797,35290.0293815171,-7258.594901394236,19679.7945713752,49457.90612195803,25959.204251671345,-16314.784147117633,-50307.22770777079,-0.098,0.902,0.448,192.0,0.0,0.0,0.0,0.0,0.0,0.0,0.0,0.0,0.0,1695412770.894546,0.0,2023-09-22 14:59:30.894
78.0,-187500.02235174447,-187500.02235174447,-41237.11332525174,-29868.725522604647,51353.44581049035,70014.69373878166,105913.94226717262,49147.1498187959,80685.99768710109,35266.4259393723,-7254.281014714363,19686.544798200703,49383.05012977721,25966.55797559714,-16313.308931983584,-50386.6434558205,-0.098,0.902,0.448,192.0,0.0,0.0,0.0,0.0,0.0,0.0,0.0,0.0,0.0,1695412770.894555,0.0,2023-09-22 14:59:30.894
80.0,-187500.02235174447,-187500.02235174447,-41182.552717036335,-29841.836374024915,51342.40404872943,70032.30691341245,105892.752813429,49165.992339371725,80726.87902770985,35301.227605489206,-7250.8611978127,19690.18813254692,49463.38229934959,25964.61337382953,-16311.766661616168,-50337.871949419015,-0.098,0.902,0.448,192.0,0.0,0.0,0.0,0.0,0.0,0.0,0.0,0.0,0.0,1695412770.894559,0.0,2023-09-22 14:59:30.894
82.0,-187500.02235174447,-187500.02235174447,-41232.41945891613,-29875.76632210807,51361.53714198317,70010.2233898906,105897.40197627568,49137.62797565794,80694.93838488322,35270.44925337425,-7237.025467994866,19704.24737980931,49378.53507739724,25972.861167533538,-16304.010606290176,-50413.376142189045,-0.096,0.904,0.452,192.0,126.5,0.0,14.0,32.0,7.0,16.0,0.0,0.0,0.0,1695412770.894562,0.0,2023-09-22 14:59:30.894
84.0,-187500.02235174447,-187500.02235174447,-41134.00472807941,-29815.058984167452,51351.88118837848,70054.97158229013,105913.07054913884,49194.66962750789,80739.7089290272,35303.99922180167,-7249.743610589935,19699.08412684013,49477.03921521178,25972.99527800027,-16305.731690613236,-50367.37625210002,-0.096,0.904,0.452,192.0,0.0,0.0,0.0,0.0,0.0,0.0,0.0,0.0,0.0,1695412770.894566,0.0,2023-09-22 14:59:30.894
86.0,-187500.02235174447,-187500.02235174447,-41242.29892996537,-29902.78958115454,51379.88792418098,69999.94158744116,105882.47101097954,49119.74658009369,80686.10944582337,35271.70095106375,-7231.973973747966,19713.65746422499,49389.53213566925,25987.56861538513,-16289.303158438584,-50438.43244772345,-0.096,0.904,0.452,192.0,0.0,0.0,0.0,0.0,0.0,0.0,0.0,0.0,0.0,1695412770.894569,0.0,2023-09-22 14:59:30.894
88.0,-187500.02235174447,-187500.02235174447,-41118.47026568297,-29826.838353495405,51366.4768775078,70059.0843032699,105940.36202911878,49193.73085424076,80734.79154524703,35293.56095714104,-7242.993383764432,19702.01220536377,49472.16653492052,25980.639574603985,-16289.571379372048,-50434.87852035505,-0.096,0.904,0.452,192.0,0.0,0.0,0.0,0.0,0.0,0.0,0.0,0.0,0.0,1695412770.894573,0.0,2023-09-22 14:59:30.894
90.0,-187500.02235174447,-187500.02235174447,-41222.964671011534,-29898.0063078411,51376.02107239021,70013.73261377009,105891.00937736146,49125.46862667425,80697.08415235093,35270.09162546297,-7234.969107504977,19716.362025304083,49395.075368294165,25987.233339218303,-16286.375079914938,-50484.54409653474,-0.096,0.904,0.452,192.0,0.0,0.0,0.0,0.0,0.0,0.0,0.0,0.0,0.0,1695412770.954811,0.0,2023-09-22 14:59:30.954
92.0,-187500.02235174447,-187500.02235174447,-41094.53154737133,-29823.73146101612,51367.41565077492,70069.50021618608,105941.501968086,49200.79400548864,80735.99853944761,35299.26065197714,-7251.867026313189,19704.22502806485,49467.092688929166,25973.129388467,-16304.189420245815,-50456.67147119898,-0.09,0.904,0.45,192.0,126.5,24.0,14.0,32.0,7.0,8.0,0.0,0.0,0.0,1695412770.954823,0.0,2023-09-22 14:59:30.954
94.0,-187500.02235174447,-187500.02235174447,-41179.04349315685,-29878.560290164984,51367.54976124165,70039.57123036042,105889.2882930384,49157.65513868989,80701.71096345318,35281.40160815735,-7237.159578461597,19715.445603781416,49401.46796720839,25988.23916771879,-16301.7977835891,-50503.1183961771,-0.09,0.904,0.45,192.0,0.0,0.0,0.0,0.0,0.0,0.0,0.0,0.0,0.0,1695412770.954827,0.0,2023-09-22 14:59:30.954
96.0,-187500.02235174447,-187500.02235174447,-41040.015642644845,-29797.93754791469,51370.65665372094,70099.02687061153,105963.63019509676,49239.41781990741,80741.0053302056,35298.433637432296,-7251.978785035466,19696.245455294305,49451.848799210646,25980.080780992605,-16315.32058898456,-50484.99113142385,-0.09,0.904,0.45,192.0,0.0,0.0,0.0,0.0,0.0,0.0,0.0,0.0,0.0,1695412770.95483,0.0,2023-09-22 14:59:30.954
98.0,-187500.02235174447,-187500.02235174447,-41142.09605957223,-29867.0491417705,51367.438002519375,70046.99200951958,105884.46031623606,49170.1050603515,80707.61182398937,35285.782550070595,-7243.52982563136,19708.538914744728,49414.811958648206,25981.108961237547,-16309.21856274826,-50504.839480500166,-0.09,0.904,0.45,192.0,0.0,0.0,0.0,0.0,0.0,0.0,0.0,0.0,0.0,1695412770.954833,0.0,2023-09-22 14:59:30.954
100.0,-187500.02235174447,-187500.02235174447,-41028.750363439365,-29805.246568351577,51375.7752032012,70087.7392396616,105970.46982890008,49225.55973834512,80718.34066132792,35278.36177091143,-7255.175084492575,19695.9995861053,49432.51454025681,25971.29654542167,-16313.577152917049,-50536.33308843769,-0.09,0.904,0.45,192.0,0.0,0.0,0.0,0.0,0.0,0.0,0.0,0.0,0.0,1695412770.954837,0.0,2023-09-22 14:59:30.954
102.0,-187500.02235174447,-187500.02235174447,-41151.64025445464,-29893.893586861326,51374.32233981161,70024.95318948665,105880.28054002293,49135.57161516805,80702.82855067594,35275.634858087884,-7242.523997130871,19705.074394354157,49408.642877178536,25977.46562689133,-16308.525658670147,-50557.32137648122,-0.092,0.902,0.45,192.0,126.5,16.0,14.0,24.0,7.0,8.0,0.0,0.0,0.0,1695412770.95484,0.0,2023-09-22 14:59:30.954
104.0,-187500.02235174447,-187500.02235174447,-41022.22365405842,-29817.51767605754,51377.6751014799,70081.32428900294,105988.4182796977,49211.61224980501,80714.02677464805,35270.82923302999,-7262.305290973818,19684.8460656221,49417.91885112749,25965.887423263484,-16315.745272129212,-50604.55061251529,-0.092,0.902,0.45,192.0,0.0,0.0,0.0,0.0,0.0,0.0,0.0,0.0,0.0,1695412770.954843,0.0,2023-09-22 14:59:30.954
106.0,-187500.02235174447,-187500.02235174447,-41129.13204778815,-29894.78765663954,51365.09106935157,70020.19226791766,105881.6439964347,49130.83304534353,80704.77315244355,35287.61539311593,-7258.3490322052285,19691.506885469786,49426.45721750942,25969.03901923168,-16322.94253384382,-50581.662426193056,-0.092,0.902,0.45,192.0,0.0,0.0,0.0,0.0,0.0,0.0,0.0,0.0,0.0,1695412771.015044,0.0,2023-09-22 14:59:31.015
108.0,-187500.02235174447,-187500.02235174447,-41024.70469769296,-29834.77322277704,51372.84712467756,70070.79661736448,106000.15294553673,49197.55300254262,80708.5505972565,35271.32097140801,-7248.62602336717,19701.587522219124,49397.33289448416,25981.19836821537,-16312.526620927649,-50672.16463949259,-0.092,0.902,0.45,192.0,0.0,0.0,0.0,0.0,0.0,0.0,0.0,0.0,0.0,1695412771.015053,0.0,2023-09-22 14:59:31.015
110.0,-187500.02235174447,-187500.02235174447,-41078.19242217451,-29866.95973479268,51352.32822326759,70041.49348038358,105890.91997038363,49161.85726664749,80723.25804510809,35309.02836430411,-7257.901997316122,19690.165780802465,49442.617528750605,25973.37525765601,-16324.305990255594,-50599.94615315749,-0.092,0.902,0.45,192.0,0.0,0.0,0.0,0.0,0.0,0.0,0.0,0.0,0.0,1695412771.015057,0.0,2023-09-22 14:59:31.015
112.0,-187500.02235174447,-187500.02235174447,-41031.43257277401,-29854.66627534226,51384.11240388303,70053.85399506736,105989.13353552026,49178.9563511558,80703.99084138761,35273.489090620176,-7247.173159977575,19700.78285941873,49382.96072279939,25979.14200772548,-16303.250646978697,-50694.80695662582,-0.092,0.896,0.452,192.0,126.5,16.0,14.0,0.0,7.0,16.0,0.0,0.0,0.0,1695412771.01506,0.0,2023-09-22 14:59:31.015
114.0,-187500.02235174447,-187500.02235174447,-41069.0952621812,-29882.82947335595,51357.37971751449,70035.39145414728,105905.13567985722,49155.55407471109,80720.91111194028,35311.06237304954,-7251.375287935172,19701.721632685854,49449.99360442086,25983.36648742753,-16310.604370904492,-50661.0558224983,-0.092,0.896,0.452,192.0,0.0,0.0,0.0,0.0,0.0,0.0,0.0,0.0,0.0,1695412771.015063,0.0,2023-09-22 14:59:31.015
116.0,-187500.02235174447,-187500.02235174447,-41029.532674495305,-29872.927650562247,51376.71397646832,70048.71309384264,105981.44453542764,49176.22943833226,80699.22991981864,35281.91569827982,-7249.877721056667,19704.448545509404,49387.475775179366,25986.942766540385,-16312.07958603854,-50758.28591087889,-0.092,0.896,0.452,192.0,0.0,0.0,0.0,0.0,0.0,0.0,0.0,0.0,0.0,1695412771.015066,0.0,2023-09-22 14:59:31.015
118.0,-187500.02235174447,-187500.02235174447,-41038.83100018871,-29876.41452269728,51352.887016878965,70041.56053561694,105903.81692693436,49166.97581612776,80725.51557129808,35327.13327731291,-7255.309194959306,19698.07829833964,49462.59998829365,25983.34413568308,-16325.937667600832,-50702.63006718518,-0.092,0.896,0.452,192.0,0.0,0.0,0.0,0.0,0.0,0.0,0.0,0.0,0.0,1695412771.015069,0.0,2023-09-22 14:59:31.015
120.0,-187500.02235174447,-187500.02235174447,-41037.288729821295,-29889.62440367036,51373.092993866565,70035.72673031411,105963.29491892993,49163.332481781545,80700.3922105303,35289.00120127216,-7232.62217433717,19717.680778226942,49373.5059348948,25993.51417941024,-16311.543144171614,-50804.799891090384,-0.092,0.896,0.452,192.0,0.0,0.0,0.0,0.0,0.0,0.0,0.0,0.0,0.0,1695412771.075414,0.0,2023-09-22 14:59:31.075
122.0,-187500.02235174447,-187500.02235174447,-41015.56283421074,-29881.24249949962,51361.33597628307,70049.74127408759,105930.19198539162,49171.71438595229,80743.93340872925,35327.22268429073,-7228.017714979376,19724.43100505245,49464.36577610562,25996.37520270052,-16309.173859259352,-50758.19650390107,-0.098,0.89,0.45,192.0,126.0,120.0,13.5,104.0,7.0,8.0,0.0,0.0,0.0,1695412771.07543,0.0,2023-09-22 14:59:31.075
124.0,-187500.02235174447,-187500.02235174447,-41019.78731391279,-29889.602051925907,51372.28833106618,70047.03671300849,105973.15203823472,49172.899028408414,80719.10062063941,35299.21594848823,-7223.301496899307,19732.231763867352,49388.59336240213,25998.453914934864,-16297.148620742397,-50838.10399032879,-0.098,0.89,0.45,192.0,0.0,0.0,0.0,0.0,0.0,0.0,0.0,0.0,0.0,1695412771.075434,0.0,2023-09-22 14:59:31.075
126.0,-187500.02235174447,-187500.02235174447,-40960.06345272821,-29847.401958394286,51344.54981619714,70067.8908905853,105935.31053487188,49205.93490671336,80748.71668204268,35332.72121342674,-7241.361706419195,19709.857667667588,49476.97215997841,25979.05260074766,-16314.381815717436,-50786.89614378168,-0.098,0.89,0.45,192.0,0.0,0.0,0.0,0.0,0.0,0.0,0.0,0.0,0.0,1695412771.075437,0.0,2023-09-22 14:59:31.075
128.0,-187500.02235174447,-187500.02235174447,-41019.45203774596,-29897.62632818536,51380.379662559,70029.75881454455,105945.7040960436,49159.30916777959,80700.21339657468,35300.46764617773,-7233.71740981548,19722.57581026266,49381.39610068752,25984.081743250103,-16308.682120881334,-50860.32162431737,-0.098,0.89,0.45,192.0,0.0,0.0,0.0,0.0,0.0,0.0,0.0,0.0,0.0,1695412771.075441,0.0,2023-09-22 14:59:31.075
130.0,-187500.02235174447,-187500.02235174447,-40947.68058629997,-29855.8956212873,51366.56628448561,70059.4419311812,105956.0082502375,49199.67641826587,80757.97030424718,35321.97002434373,-7232.532767359348,19719.893600928022,49464.94692146146,25980.863092048538,-16305.374062701949,-50846.57530147735,-0.098,0.89,0.45,192.0,0.0,0.0,0.0,0.0,0.0,0.0,0.0,0.0,0.0,1695412771.075444,0.0,2023-09-22 14:59:31.075
132.0,-187500.02235174447,-187500.02235174447,-41021.4860464914,-29911.95379638121,51380.8266974481,70021.80159351845,105946.17348267716,49149.13912405242,80705.1531320993,35287.2801169491,-7229.224709179964,19718.7536619608,49380.70319660941,25991.971909042823,-16300.188457988315,-50916.55861336692,-0.1,0.894,0.456,192.0,126.0,112.0,13.5,120.0,7.0,32.0,0.0,0.0,0.0,1695412771.075448,0.0,2023-09-22 14:59:31.075
134.0,-187500.02235174447,-187500.02235174447,-40919.74090573083,-29853.079301485934,51359.54783672665,70062.5935271494,105960.88093052876,49205.10789216851,80749.65545530981,35312.64934690587,-7242.702811086513,19701.296949541207,49467.96440696292,25968.81550178713,-16316.996969818709,-50880.862877471794,-0.1,0.894,0.456,192.0,0.0,0.0,0.0,0.0,0.0,0.0,0.0,0.0,0.0,1695412771.075451,0.0,2023-09-22 14:59:31.075
136.0,-187500.02235174447,-187500.02235174447,-41027.34220353868,-29935.19961061473,51378.97150265832,70011.02805269099,105933.52239531546,49131.01185929917,80710.0034606461,35284.26263144763,-7216.417159607072,19726.643827753524,49372.54480988322,25986.22751071781,-16303.116536511963,-50971.78977391598,-0.1,0.894,0.456,192.0,0.0,0.0,0.0,0.0,0.0,0.0,0.0,0.0,0.0,1695412771.134781,0.0,2023-09-22 14:59:31.134
138.0,-187500.02235174447,-187500.02235174447,-40899.53492874324,-29856.186193965223,51361.51479023872,70065.92393707322,105981.44453542764,49207.61128754751,80742.7040627842,35302.72517236772,-7239.618270351681,19703.398013520004,49458.35315684714,25966.55797559714,-16317.064025052076,-50954.33306149639,-0.1,0.894,0.456,192.0,0.0,0.0,0.0,0.0,0.0,0.0,0.0,0.0,0.0,1695412771.134791,0.0,2023-09-22 14:59:31.134
140.0,-187500.02235174447,-187500.02235174447,-40983.57748789519,-29907.215226556687,51367.81798217511,70027.00954997654,105924.82756672236,49161.20906605829,80713.11035312538,35281.289849435074,-7227.235403923441,19709.455336267398,49396.99761831732,25969.91073726544,-16318.829812864044,-50982.160983343245,-0.1,0.894,0.456,192.0,0.0,0.0,0.0,0.0,0.0,0.0,0.0,0.0,0.0,1695412771.134794,0.0,2023-09-22 14:59:31.134
142.0,-187500.02235174447,-187500.02235174447,-40891.17537631696,-29865.171595236254,51372.02011013271,70055.50802415705,105990.8769715878,49204.97378170178,80750.92950474376,35273.01970398661,-7231.772808047868,19712.495173513315,49443.37748806208,25978.51615888073,-16311.520792427158,-50993.94035267119,-0.098,0.898,0.454,192.0,126.0,120.0,14.0,8.0,7.0,24.0,0.0,0.0,0.0,1695412771.134798,0.0,2023-09-22 14:59:31.134
144.0,-187500.02235174447,-187500.02235174447,-40970.88169704458,-29913.607825470903,51366.65569146344,70025.35552088685,105926.1463196452,49164.38301377095,80725.31440559798,35277.735922066684,-7228.62121207967,19712.98691189133,49407.4135312335,25984.41701941693,-16308.592713903514,-51012.648762780285,-0.098,0.898,0.454,192.0,0.0,0.0,0.0,0.0,0.0,0.0,0.0,0.0,0.0,1695412771.134801,0.0,2023-09-22 14:59:31.134
146.0,-187500.02235174447,-187500.02235174447,-40873.42809121944,-29869.731351105136,51377.89861892445,70059.91131781475,105998.3201024914,49212.10398818302,80741.74293777264,35286.050771004055,-7231.057552225298,19712.2046008354,49432.29102281226,25983.500597894265,-16305.888152824422,-51036.90040551429,-0.098,0.898,0.454,192.0,0.0,0.0,0.0,0.0,0.0,0.0,0.0,0.0,0.0,1695412771.134804,0.0,2023-09-22 14:59:31.134
148.0,-187500.02235174447,-187500.02235174447,-40983.6221913841,-29942.19570662924,51363.45939200633,70009.88811372378,105919.46314805308,49146.41221122888,80721.42520206276,35282.36273316893,-7223.457959110494,19719.938304416934,49398.98692357384,25991.41311543144,-16306.245780735706,-51079.01109206809,-0.098,0.898,0.454,192.0,0.0,0.0,0.0,0.0,0.0,0.0,0.0,0.0,0.0,1695412771.134807,0.0,2023-09-22 14:59:31.134
150.0,-187500.02235174447,-187500.02235174447,-40850.11522175255,-29858.75664457758,51362.76648792822,70069.70138188617,106007.774890396,49228.53252035767,80742.83817325094,35283.34620992497,-7243.216901208985,19700.38052801854,49421.89746164053,25977.3315164246,-16326.585868190035,-51104.13445283585,-0.098,0.898,0.454,192.0,0.0,0.0,0.0,0.0,0.0,0.0,0.0,0.0,0.0,1695412771.13481,0.0,2023-09-22 14:59:31.134
152.0,-187500.02235174447,-187500.02235174447,-40944.61839730959,-29918.614616228893,51349.51190346622,70021.53337258499,105904.21925833456,49167.042871361125,80726.2531788651,35289.76116058364,-7239.171235462575,19703.509772242283,49412.19680454693,25974.11286522304,-16335.28069678315,-51096.26663878759,-0.096,0.9,0.454,192.0,126.5,0.0,14.0,16.0,7.0,24.0,0.0,0.0,0.0,1695412771.195479,0.0,2023-09-22 14:59:31.195
154.0,-187500.02235174447,-187500.02235174447,-40846.76246008426,-29866.15507199229,51371.03663337668,70059.0843032699,106005.04797757244,49219.63652606446,80726.92373119877,35272.95264875325,-7248.961299533999,19701.74398443031,49398.07050205118,25971.85533903305,-16334.878365382954,-51149.66495629132,-0.096,0.9,0.454,192.0,0.0,0.0,0.0,0.0,0.0,0.0,0.0,0.0,0.0,1695412771.195495,0.0,2023-09-22 14:59:31.195
156.0,-187500.02235174447,-187500.02235174447,-40914.3094318282,-29900.86733113138,51349.06486857711,70031.01051223403,105914.255191595,49178.68813022234,80720.68759449573,35295.37144844192,-7244.8485785542225,19706.147278088007,49417.27065053829,25974.895176278973,-16336.621801450468,-51128.9672409257,-0.096,0.9,0.454,192.0,0.0,0.0,0.0,0.0,0.0,0.0,0.0,0.0,0.0,1695412771.195498,0.0,2023-09-22 14:59:31.195
158.0,-187500.02235174447,-187500.02235174447,-40846.69540485089,-29874.96165930768,51373.58473224458,70054.14456774529,106014.63687594378,49210.09233118205,80720.32996658444,35272.349151652954,-7240.24411919643,19711.22112407936,49384.07831002216,25979.544339125678,-16329.022208335664,-51195.2848667246,-0.096,0.9,0.454,192.0,0.0,0.0,0.0,0.0,0.0,0.0,0.0,0.0,0.0,1695412771.195501,0.0,2023-09-22 14:59:31.195
160.0,-187500.02235174447,-187500.02235174447,-40901.36777178857,-29910.38917426934,51352.52938896768,70028.21654417712,105931.42133133666,49176.54236275463,80741.72058602817,35299.64063163288,-7241.875796541667,19708.628321722543,49437.92366241499,25972.50353962225,-16333.783129904645,-51168.35101465596,-0.096,0.9,0.454,192.0,0.0,0.0,0.0,0.0,0.0,0.0,0.0,0.0,0.0,1695412771.195505,0.0,2023-09-22 14:59:31.195
162.0,-187500.02235174447,-187500.02235174447,-40832.54675061068,-29872.301801717495,51371.55072349915,70058.79373059199,106033.76996919751,49221.22349992079,80730.07532716695,35263.5202125931,-7237.874834284167,19706.9519408884,49391.09675778112,25975.833949546093,-16326.8540891235,-51253.89114068641,-0.09,0.902,0.458,192.0,126.5,24.0,14.0,24.0,7.0,40.0,0.0,0.0,0.0,1695412771.195508,0.0,2023-09-22 14:59:31.195
164.0,-187500.02235174447,-187500.02235174447,-40857.80422184518,-29886.450455957707,51352.77525815669,70046.8802507973,105948.67687805615,49208.05832243661,80748.26964715357,35302.0322682896,-7249.296575700829,19700.04525185171,49455.93916844597,25969.642516331973,-16338.94638287382,-51191.01568353363,-0.09,0.902,0.458,192.0,0.0,0.0,0.0,0.0,0.0,0.0,0.0,0.0,0.0,1695412771.195511,0.0,2023-09-22 14:59:31.195
166.0,-187500.02235174447,-187500.02235174447,-40829.95394825387,-29878.69440063172,51384.40297656095,70058.65962012525,106030.10428310683,49223.45867436632,80715.07730663745,35268.7728725401,-7236.757247061401,19717.99370264932,49375.18231572895,25983.52294963872,-16320.640304164925,-51286.837612013536,-0.09,0.902,0.458,192.0,0.0,0.0,0.0,0.0,0.0,0.0,0.0,0.0,0.0,1695412771.255597,0.0,2023-09-22 14:59:31.255
168.0,-187500.02235174447,-187500.02235174447,-40821.32617489412,-29871.228917983644,51360.50896173823,70061.72180911562,105964.4572096416,49222.206976676825,80746.0568244525,35311.442352705286,-7247.664898355591,19705.208504820886,49461.437697581976,25975.789246057186,-16328.32930425755,-51221.77168390414,-0.09,0.902,0.458,192.0,0.0,0.0,0.0,0.0,0.0,0.0,0.0,0.0,0.0,1695412771.25563,0.0,2023-09-22 14:59:31.255
170.0,-187500.02235174447,-187500.02235174447,-40841.10746873706,-29900.77792415356,51393.6789505099,70047.39434091978,106024.15871908174,49202.3139241116,80711.67984148025,35265.442462616265,-7216.260697395885,19728.47667079886,49374.40000467301,25996.464609678344,-16309.643245892912,-51333.06101954711,-0.09,0.902,0.458,192.0,0.0,0.0,0.0,0.0,0.0,0.0,0.0,0.0,0.0,1695412771.255634,0.0,2023-09-22 14:59:31.255
172.0,-187500.02235174447,-187500.02235174447,-40802.0813229181,-29872.838243584425,51369.181438586886,70068.20381500767,105988.28416923096,49226.58791859006,80758.99848449213,35311.10707653846,-7226.47544461196,19718.61955149407,49472.94884597645,25990.027307275213,-16319.053330308598,-51281.76376602218,-0.092,0.9,0.456,192.0,126.5,16.0,14.0,16.0,7.0,32.0,0.0,0.0,0.0,1695412771.255637,0.0,2023-09-22 14:59:31.255
174.0,-187500.02235174447,-187500.02235174447,-40813.16778816793,-29881.063685543977,51388.89567719647,70064.89575682828,106020.4706812466,49222.36343888801,80725.22499862016,35286.52015763762,-7222.474482354461,19726.487365542336,49388.14632751302,26001.404345202965,-16310.961998815776,-51356.08331633608,-0.092,0.9,0.456,192.0,0.0,0.0,0.0,0.0,0.0,0.0,0.0,0.0,0.0,1695412771.25564,0.0,2023-09-22 14:59:31.255
176.0,-187500.02235174447,-187500.02235174447,-40763.099880588044,-29855.225068953645,51371.79659268816,70077.32332674543,105991.1228407768,49241.02714550819,80774.95763003321,35324.45106797828,-7233.829168537756,19722.1064236291,49476.525125089305,26001.80667660316,-16319.27684775315,-51301.90268777641,-0.092,0.9,0.456,192.0,0.0,0.0,0.0,0.0,0.0,0.0,0.0,0.0,0.0,1695412771.255644,0.0,2023-09-22 14:59:31.255
178.0,-187500.02235174447,-187500.02235174447,-40822.60022432807,-29904.82358989997,51393.63424702099,70048.71309384264,106003.70687290512,49200.25756362171,80717.64775724981,35289.31412569453,-7217.534746829838,19740.05487442671,49383.45246117741,26016.067089565648,-16309.933818570831,-51393.88011621,-0.092,0.9,0.456,192.0,0.0,0.0,0.0,0.0,0.0,0.0,0.0,0.0,0.0,1695412771.255647,0.0,2023-09-22 14:59:31.255
180.0,-187500.02235174447,-187500.02235174447,-40760.41767125341,-29878.426179698254,51374.79172644517,70067.46620744065,106001.13642229277,49224.084523211066,80775.02468526659,35325.479248223215,-7216.081883440243,19740.43485408245,49472.345348876166,26019.75512740077,-16321.690836154325,-51369.62847347599,-0.092,0.9,0.456,192.0,0.0,0.0,0.0,0.0,0.0,0.0,0.0,0.0,0.0,1695412771.25565,0.0,2023-09-22 14:59:31.255
182.0,-187500.02235174447,-187500.02235174447,-40836.145381467984,-29932.9644361692,51385.34174982808,70034.94441925817,105990.7652128655,49177.43643253284,80733.71866151318,35294.07504726351,-7211.656238038092,19745.419293095983,49383.18424024394,26022.549095457685,-16320.953228587296,-51457.64964314099,-0.096,0.896,0.454,192.0,126.5,0.0,14.0,0.0,7.0,24.0,0.0,0.0,0.0,1695412771.315486,0.0,2023-09-22 14:59:31.315
184.0,-187500.02235174447,-187500.02235174447,-40730.19811274983,-29868.278487715543,51369.38260428698,70078.37385873483,106018.39196901229,49242.94939553135,80773.30360094352,35323.71346041125,-7232.152787703609,19731.47180455587,49468.50084882985,26010.70267089637,-16334.61014444949,-51428.65943058246,-0.096,0.896,0.454,192.0,0.0,0.0,0.0,0.0,0.0,0.0,0.0,0.0,0.0,1695412771.315521,0.0,2023-09-22 14:59:31.315
186.0,-187500.02235174447,-187500.02235174447,-40809.70326777736,-29915.798296427525,51376.91514216842,70040.08532048289,105976.2142272251,49200.45872932181,80733.58455104644,35299.0818380215,-7217.087711940731,19734.80221447971,49387.76634785728,26009.45097320688,-16329.826871136054,-51477.72150966186,-0.096,0.896,0.454,192.0,0.0,0.0,0.0,0.0,0.0,0.0,0.0,0.0,0.0,1695412771.315542,0.0,2023-09-22 14:59:31.315
188.0,-187500.02235174447,-187500.02235174447,-40699.1068362125,-29852.31934217445,51366.54393274116,70079.20087327968,106014.27924803249,49259.55674166164,80775.2705544556,35316.7844196301,-7228.241232423929,19726.062682397685,49451.848799210646,25994.989394544293,-16339.482824740748,-51453.64868088349,-0.096,0.896,0.454,192.0,0.0,0.0,0.0,0.0,0.0,0.0,0.0,0.0,0.0,1695412771.315547,0.0,2023-09-22 14:59:31.315
190.0,-187500.02235174447,-187500.02235174447,-40813.4807125903,-29926.84005818845,51380.71493872583,70024.9308377422,105964.47956138606,49188.16526987139,80737.8090307485,35294.67854436381,-7204.816604234768,19747.989743708345,49381.55256289871,26012.915493597447,-16324.775376889156,-51513.77487346827,-0.096,0.896,0.454,192.0,0.0,0.0,0.0,0.0,0.0,0.0,0.0,0.0,0.0,1695412771.315552,0.0,2023-09-22 14:59:31.315
192.0,-187500.02235174447,-187500.02235174447,-40685.42756860585,-29850.10651947338,51382.95011317136,70080.60903318037,106044.74467572507,49267.89394234347,80769.23558345265,35317.790248130594,-7215.008999706388,19740.50190931581,49441.81286595021,26006.23232200531,-16317.93574308583,-51515.227736857865,-0.096,0.89,0.46,192.0,126.5,0.0,13.5,104.0,7.0,48.0,0.0,0.0,0.0,1695412771.315557,0.0,2023-09-22 14:59:31.315
194.0,-187500.02235174447,-187500.02235174447,-40787.53033727769,-29913.317252792986,51378.323302069104,70030.92110525622,105963.7643055635,49205.04083693515,80751.10831869941,35314.25867250665,-7210.024560692855,19738.80317673721,49401.71383639739,26008.04281330619,-16315.097071540007,-51531.14217891004,-0.096,0.89,0.46,192.0,0.0,0.0,0.0,0.0,0.0,0.0,0.0,0.0,0.0,1695412771.315568,0.0,2023-09-22 14:59:31.315
196.0,-187500.02235174447,-187500.02235174447,-40676.30805686809,-29853.1463567193,51393.18721213189,70072.87532959883,106056.12171365284,49267.20103826535,80766.24044969564,35308.51427418164,-7221.71452304298,19727.87317369857,49434.68265946897,26007.171095272435,-16309.71030112628,-51559.08185947918,-0.096,0.89,0.46,192.0,0.0,0.0,0.0,0.0,0.0,0.0,0.0,0.0,0.0,1695412771.375751,0.0,2023-09-22 14:59:31.375
198.0,-187500.02235174447,-187500.02235174447,-40775.99683713876,-29913.25019755962,51384.29121783868,70026.71897729862,105965.37363116429,49210.33820037106,80744.38044361836,35312.24701550567,-7219.948735231011,19726.353255075606,49423.43973200795,26002.924263825927,-16309.240914492715,-51557.15960945602,-0.096,0.89,0.46,192.0,0.0,0.0,0.0,0.0,0.0,0.0,0.0,0.0,0.0,1695412771.37579,0.0,2023-09-22 14:59:31.375
200.0,-187500.02235174447,-187500.02235174447,-40691.9542779868,-29874.939307563225,51389.230953363294,70052.95992528915,106054.3335740964,49251.84538982456,80760.1607752038,35300.08766652199,-7216.931249729544,19730.9577144334,49421.53983372925,26009.76389762925,-16301.954245800289,-51624.30424979976,-0.096,0.89,0.46,192.0,0.0,0.0,0.0,0.0,0.0,0.0,0.0,0.0,0.0,1695412771.375796,0.0,2023-09-22 14:59:31.375
202.0,-187500.02235174447,-187500.02235174447,-40771.10180510304,-29915.03833711605,51375.64109273447,70021.01928246251,105963.3619741633,49206.06901718009,80756.00335073512,35309.76597187114,-7216.014828206877,19731.628266767057,49428.89355765505,26006.29937723868,-16305.999911546698,-51629.82513068022,-0.09,0.894,0.46,192.0,126.5,24.0,13.5,120.0,7.0,48.0,0.0,0.0,0.0,1695412771.375809,0.0,2023-09-22 14:59:31.375
204.0,-187500.02235174447,-187500.02235174447,-40673.29057136662,-29857.86257479937,51386.526392284206,70063.95698356116,106061.30731836644,49264.09414578607,80760.13842345934,35301.20525374475,-7222.027447465354,19731.89648770052,49418.567051716695,26002.633691148007,-16300.300216710595,-51673.5451428348,-0.09,0.894,0.46,192.0,0.0,0.0,0.0,0.0,0.0,0.0,0.0,0.0,0.0,1695412771.375814,0.0,2023-09-22 14:59:31.375
206.0,-187500.02235174447,-187500.02235174447,-40748.32537750308,-29905.717659678183,51360.240740804766,70026.49545985406,105949.52624434546,49214.18270041737,80756.76331004659,35324.428716233815,-7231.370476647673,19724.743929474826,49445.612662507614,25996.12933351151,-16305.731690613236,-51635.10014237167,-0.09,0.894,0.46,192.0,0.0,0.0,0.0,0.0,0.0,0.0,0.0,0.0,0.0,1695412771.375819,0.0,2023-09-22 14:59:31.375
208.0,-187500.02235174447,-187500.02235174447,-40674.6987312673,-29869.798406338505,51381.6760637374,70061.27477422652,106054.02064967404,49260.33905271758,80751.04126346603,35286.65426810435,-7224.553194588804,19731.8070807227,49390.44855719192,26006.075859794124,-16298.13209749843,-51726.45172196052,-0.09,0.894,0.46,192.0,0.0,0.0,0.0,0.0,0.0,0.0,0.0,0.0,0.0,1695412771.375824,0.0,2023-09-22 14:59:31.375
210.0,-187500.02235174447,-187500.02235174447,-40717.81524632159,-29898.05101133001,51361.559493727626,70039.01243674904,105967.29588118744,49233.22638669329,80776.23167946716,35323.95932960026,-7227.123645201164,19723.51458352978,49450.8206189657,26001.426696947423,-16306.603408646992,-51670.46060209997,-0.09,0.894,0.46,192.0,0.0,0.0,0.0,0.0,0.0,0.0,0.0,0.0,0.0,1695412771.375829,0.0,2023-09-22 14:59:31.375
212.0,-187500.02235174447,-187500.02235174447,-40668.88727770893,-29879.230842498644,51385.0288254057,70054.59160263439,106062.11198116685,49259.71320387283,80753.29878965602,35293.382143185394,-7220.574584075759,19726.80028996471,49391.946124070426,26005.60647316056,-16296.679234108837,-51755.374879285686,-0.088,0.886,0.46,192.0,126.5,32.0,13.5,88.0,7.0,48.0,0.0,0.0,0.0,1695412771.436069,0.0,2023-09-22 14:59:31.436
214.0,-187500.02235174447,-187500.02235174447,-40725.19132199184,-29921.58739824145,51369.06967986461,70025.91431449822,105986.9654163081,49217.89308999695,80781.88667081436,35309.69891663777,-7219.7252177864575,19728.588429521136,49449.03247940928,26013.20606627537,-16292.7453270847,-51737.046448832334,-0.088,0.886,0.46,192.0,0.0,0.0,0.0,0.0,0.0,0.0,0.0,0.0,0.0,1695412771.436079,0.0,2023-09-22 14:59:31.436
216.0,-187500.02235174447,-187500.02235174447,-40709.58980436204,-29921.319177307985,51392.80723247615,70033.55861110194,106063.8777689788,49223.83865402206,80752.65058906682,35279.45700638974,-7220.574584075759,19733.86344121259,49382.82661233266,26014.10013605358,-16281.725917068234,-51839.97623204902,-0.088,0.886,0.46,192.0,0.0,0.0,0.0,0.0,0.0,0.0,0.0,0.0,0.0,1695412771.436083,0.0,2023-09-22 14:59:31.436
218.0,-187500.02235174447,-187500.02235174447,-40663.411100317375,-29877.979144809146,51365.0240141182,70067.39915220728,106018.28021029,49257.94741606086,80791.00618255213,35329.1896378028,-7228.487101612938,19720.921781172965,49476.21220066693,26001.583159158607,-16292.410050917872,-51775.64791150665,-0.088,0.886,0.46,192.0,0.0,0.0,0.0,0.0,0.0,0.0,0.0,0.0,0.0,1695412771.436087,0.0,2023-09-22 14:59:31.436
220.0,-187500.02235174447,-187500.02235174447,-40679.9513912143,-29897.87219737437,51387.21929636232,70048.40016942027,106053.81948397392,49235.8191890501,80745.52038258557,35298.21011998774,-7228.777674290857,19721.748795717813,49386.02291178977,26009.58508367361,-16287.02328050414,-51836.69052561409,-0.088,0.886,0.46,192.0,0.0,0.0,0.0,0.0,0.0,0.0,0.0,0.0,0.0,1695412771.43609,0.0,2023-09-22 14:59:31.436
222.0,-187500.02235174447,-187500.02235174447,-40673.67055102236,-29906.119991078376,51372.62360723301,70043.6839513402,106020.78360566898,49222.96693598831,80768.27445844108,35323.95932960026,-7228.509453357394,19723.648693996514,49459.13546790308,26016.983511088318,-16282.46352463526,-51816.75276955996,-0.088,0.89,0.462,192.0,126.5,32.0,13.5,104.0,7.0,56.0,0.0,0.0,0.0,1695412771.436094,0.0,2023-09-22 14:59:31.436
224.0,-187500.02235174447,-187500.02235174447,-40700.24677517972,-29926.88476167736,51385.20763936134,70032.64218957927,106053.79713222948,49209.80175850412,80742.97228371767,35292.46572166273,-7219.501700341904,19732.030598167254,49375.227019217855,26017.81052563316,-16278.350803655483,-51913.64758177371,-0.088,0.89,0.462,192.0,0.0,0.0,0.0,0.0,0.0,0.0,0.0,0.0,0.0,1695412771.436097,0.0,2023-09-22 14:59:31.436
226.0,-187500.02235174447,-187500.02235174447,-40634.46559124776,-29887.00924956909,51365.91808389641,70057.81025383595,106044.11882688032,49246.81624732212,80783.74186560416,35322.685280166304,-7235.796122049824,19714.23860958083,49468.00911045184,26006.947577827883,-16291.60538811748,-51859.31049100286,-0.088,0.89,0.462,192.0,0.0,0.0,0.0,0.0,0.0,0.0,0.0,0.0,0.0,1695412771.496338,0.0,2023-09-22 14:59:31.496
228.0,-187500.02235174447,-187500.02235174447,-40685.360513372485,-29921.788563941547,51384.5817905166,70032.75394830156,106046.5775187704,49215.38969461795,80732.5563708015,35287.74950358266,-7231.973973747966,19718.12781311605,49381.82078383217,26011.887313352505,-16288.789068316111,-51922.61063130029,-0.088,0.89,0.462,192.0,0.0,0.0,0.0,0.0,0.0,0.0,0.0,0.0,0.0,1695412771.496374,0.0,2023-09-22 14:59:31.496
230.0,-187500.02235174447,-187500.02235174447,-40589.91856454832,-29862.22116496816,51366.0745461076,70071.78009412052,106060.45795207717,49269.83854411108,80785.73117086067,35310.68239339381,-7241.093485485731,19708.404804277998,49460.253055125846,26001.44904869188,-16296.411013175371,-51892.5475350079,-0.088,0.89,0.462,192.0,0.0,0.0,0.0,0.0,0.0,0.0,0.0,0.0,0.0,1695412771.496377,0.0,2023-09-22 14:59:31.496
232.0,-187500.02235174447,-187500.02235174447,-40663.38874857292,-29911.238540558643,51378.79268870267,70034.45268088016,106033.94878315316,49222.13992144346,80727.39311783233,35280.41813140132,-7231.839863281234,19722.24053409583,49373.57299012816,26003.885388837505,-16295.293425952606,-51946.61640484529,-0.09,0.896,0.462,192.0,126.5,24.0,14.0,0.0,7.0,56.0,0.0,0.0,0.0,1695412771.496381,0.0,2023-09-22 14:59:31.496
234.0,-187500.02235174447,-187500.02235174447,-40548.18785765026,-29837.120155944845,51365.49340075176,70086.57694894994,106132.87760411236,49289.26221004275,80776.85752831191,35314.28102425111,-7243.842750053734,19716.429080537448,49454.59806377865,26000.778496358216,-16297.752117842689,-51913.4017125847,-0.09,0.896,0.462,192.0,0.0,0.0,0.0,0.0,0.0,0.0,0.0,0.0,0.0,1695412771.496385,0.0,2023-09-22 14:59:31.496
236.0,-187500.02235174447,-187500.02235174447,-40677.4032923464,-29930.416337301296,51372.69066246637,70021.46631735162,106053.39480082928,49201.48690956675,80725.96260618718,35295.10322750846,-7221.491005598427,19732.410577822997,49379.58560938664,26008.176923772924,-16289.50432413868,-51969.973977801084,-0.09,0.896,0.462,192.0,0.0,0.0,0.0,0.0,0.0,0.0,0.0,0.0,0.0,1695412771.496388,0.0,2023-09-22 14:59:31.496
238.0,-187500.02235174447,-187500.02235174447,-40565.57751483649,-29862.891717301813,51361.31362453862,70072.92003308774,106068.99631845907,49272.118422045525,80789.06158078452,35310.68239339381,-7226.855424267701,19727.493194042825,49443.06456363971,26012.31199649716,-16295.248722463695,-51987.85537336533,-0.09,0.896,0.462,192.0,0.0,0.0,0.0,0.0,0.0,0.0,0.0,0.0,0.0,1695412771.496392,0.0,2023-09-22 14:59:31.496
240.0,-187500.02235174447,-187500.02235174447,-40692.44601636482,-29950.532907311077,51370.90252290994,70010.35750035734,105962.04322124044,49187.874697193474,80742.36878661737,35295.773779842115,-7222.474482354461,19730.734196988848,49387.69929262392,26009.00393831777,-16292.722975340246,-52030.70366748615,-0.09,0.896,0.462,192.0,0.0,0.0,0.0,0.0,0.0,0.0,0.0,0.0,0.0,1695412771.496396,0.0,2023-09-22 14:59:31.496
242.0,-187500.02235174447,-187500.02235174447,-40579.94968652126,-29886.69632514672,51374.88113342299,70062.48176842711,106024.44929175964,49252.13596250248,80779.15975799081,35303.2839659791,-7231.169310947575,19727.64965625401,49436.82842693668,26008.0875167951,-16288.27497819364,-52065.17005743624,-0.086,0.894,0.458,192.0,126.5,40.0,13.5,120.0,7.0,40.0,0.0,0.0,0.0,1695412771.555687,0.0,2023-09-22 14:59:31.555
244.0,-187500.02235174447,-187500.02235174447,-40664.23811486222,-29932.696215235737,51367.5274094972,70028.97650348861,105924.26877311096,49209.60059280403,80757.38915889134,35306.547320669575,-7234.656183082603,19726.30855158669,49406.161833544,26006.366432472045,-16292.32064394005,-52071.16032495026,-0.086,0.894,0.458,192.0,0.0,0.0,0.0,0.0,0.0,0.0,0.0,0.0,0.0,1695412771.555713,0.0,2023-09-22 14:59:31.555
246.0,-187500.02235174447,-187500.02235174447,-40572.10422421744,-29892.1054473049,51380.69258698137,70056.91618405774,105982.27154997249,49252.06890726911,80769.54850787504,35295.66202111984,-7233.918575515578,19723.8051562077,49422.38920001855,26001.29258648069,-16291.203056717284,-52101.78221485403,-0.086,0.894,0.458,192.0,0.0,0.0,0.0,0.0,0.0,0.0,0.0,0.0,0.0,1695412771.555717,0.0,2023-09-22 14:59:31.555
248.0,-187500.02235174447,-187500.02235174447,-40659.87952469344,-29942.508631051616,51366.78980193017,70018.89586673926,105887.1425255707,49200.07874966607,80748.42610936477,35299.551224655064,-7222.876813754656,19735.740987746834,49413.29204002524,26011.037947063203,-16292.65592010688,-52113.76274988207,-0.086,0.894,0.458,192.0,0.0,0.0,0.0,0.0,0.0,0.0,0.0,0.0,0.0,1695412771.555721,0.0,2023-09-22 14:59:31.555
250.0,-187500.02235174447,-187500.02235174447,-40528.04893589603,-29858.71194108867,51373.56238050013,70076.5410156895,105980.63987262725,49278.77924189321,80771.64957185384,35287.21306171573,-7233.695058071024,19718.641903238524,49413.44850223643,25995.861112578048,-16301.373100444447,-52147.53623575404,-0.086,0.894,0.458,192.0,0.0,0.0,0.0,0.0,0.0,0.0,0.0,0.0,0.0,1695412771.555725,0.0,2023-09-22 14:59:31.555
252.0,-187500.02235174447,-187500.02235174447,-40618.05941081756,-29911.84203765893,51362.475915250296,70028.10478545485,105862.62266190322,49214.47327309529,80761.07719672647,35303.663945634835,-7243.686287842547,19710.28235081224,49425.3172785422,25988.641499118985,-16312.638379649925,-52101.96102880968,-0.09,0.9,0.46,192.0,126.5,24.0,14.0,16.0,7.0,48.0,0.0,0.0,0.0,1695412771.555728,0.0,2023-09-22 14:59:31.555
254.0,-187500.02235174447,-187500.02235174447,-40576.79809055306,-29907.55050272352,51390.77322373072,70030.60818083385,105949.03450596744,49218.7201045418,80752.13649894435,35265.643628316364,-7239.439456396039,19711.645807224013,49386.20172574541,25995.61524338904,-16304.681158623836,-52196.50890785562,-0.09,0.9,0.46,192.0,0.0,0.0,0.0,0.0,0.0,0.0,0.0,0.0,0.0,1695412771.555733,0.0,2023-09-22 14:59:31.555
0.0,-187500.02235174447,-187500.02235174447,-40635.717288937245,-29938.753537983128,51366.61098797453,70012.34680561385,105871.40689747415,49188.81347046059,80768.92265903029,35281.89334653537,-7236.824302294768,19711.06466186817,49428.82650242168,25998.43156319041,-16305.284655724128,-52194.22902992118,-0.09,0.9,0.46,192.0,0.0,0.0,0.0,0.0,0.0,0.0,0.0,0.0,0.0,1695412771.615383,0.0,2023-09-22 14:59:31.615
2.0,-187500.02235174447,-187500.02235174447,-40590.6785238598,-29926.77300295508,51391.01909291972,70027.38952963227,105956.83526478236,49209.60059280403,80750.19189717673,35260.59213406946,-7231.281069669852,19720.6535602395,49391.38733045904,26003.416002203943,-16296.388661430916,-52269.263836057646,-0.09,0.9,0.46,192.0,0.0,0.0,0.0,0.0,0.0,0.0,0.0,0.0,0.0,1695412771.615397,0.0,2023-09-22 14:59:31.615
4.0,-187500.02235174447,-187500.02235174447,-40609.856320602456,-29928.18116285577,51364.53227574018,70030.09409071137,105877.19599928807,49207.54423231414,80771.49310964264,35293.605660629946,-7245.362668676695,19705.588484476622,49452.29583409975,26001.51610392524,-16306.022263291154,-52233.05401004005,-0.09,0.9,0.46,192.0,0.0,0.0,0.0,0.0,0.0,0.0,0.0,0.0,0.0,1695412771.6154,0.0,2023-09-22 14:59:31.615
6.0,-187500.02235174447,-187500.02235174447,-40535.73793598866,-29876.05689478599,51381.85487769305,70068.91907083023,105954.510683359,49262.3283579741,80758.17146994728,35279.836986045484,-7247.843712311234,19708.04717636671,49392.214345003886,25999.504446924264,-16307.922161569852,-52284.30656007607,-0.086,0.896,0.462,192.0,126.5,40.0,14.0,0.0,7.0,56.0,0.0,0.0,0.0,1695412771.615404,0.0,2023-09-22 14:59:31.615
8.0,-187500.02235174447,-187500.02235174447,-40541.52703780258,-29877.755627364597,51367.19213333036,70061.31947771543,105869.86462710676,49255.3769654485,80782.80309233702,35324.80869588956,-7254.951567048021,19705.02969086524,49460.4765725704,25998.25274923477,-16314.918257584366,-52209.45056789525,-0.086,0.896,0.462,192.0,0.0,0.0,0.0,0.0,0.0,0.0,0.0,0.0,0.0,1695412771.615407,0.0,2023-09-22 14:59:31.615
10.0,-187500.02235174447,-187500.02235174447,-40551.36180536292,-29900.509703220097,51398.14929940097,70049.7859775765,105935.6011075498,49239.73074432978,80745.22980990766,35274.0255324871,-7227.570680090271,19727.64965625401,49369.974359270855,26015.262426765257,-16292.164181728862,-52325.76904604067,-0.086,0.896,0.462,192.0,0.0,0.0,0.0,0.0,0.0,0.0,0.0,0.0,0.0,1695412771.61541,0.0,2023-09-22 14:59:31.615
12.0,-187500.02235174447,-187500.02235174447,-40521.92455791528,-29877.509758175584,51369.27084556471,70062.34765796037,105874.13381029772,49254.5275991592,80791.02853429658,35318.05846906405,-7239.484159884949,19714.32801655865,49467.33855811817,26006.209970260858,-16308.32449297005,-52265.709908689256,-0.086,0.896,0.462,192.0,0.0,0.0,0.0,0.0,0.0,0.0,0.0,0.0,0.0,1695412771.615413,0.0,2023-09-22 14:59:31.615
14.0,-187500.02235174447,-187500.02235174447,-40535.9167499443,-29891.166674037777,51396.04823542217,70051.6858758552,105920.93836318712,49246.50332289974,80750.63893206585,35273.824366787005,-7218.339409630229,19732.455281311904,49382.89366756602,26016.15649654347,-16294.377004429938,-52363.4093837034,-0.086,0.896,0.462,192.0,0.0,0.0,0.0,0.0,0.0,0.0,0.0,0.0,0.0,1695412771.615416,0.0,2023-09-22 14:59:31.615
16.0,-187500.02235174447,-187500.02235174447,-40475.14235677032,-29845.52441186004,51368.19796183085,70076.56336743395,105885.26497903644,49284.92597161842,80805.53481644808,35317.32086149703,-7230.342296402729,19720.05006313921,49488.617418839625,25998.990356801794,-16308.100975525496,-52286.58643801051,-0.086,0.894,0.458,192.0,126.5,40.0,13.5,120.0,7.0,40.0,0.0,0.0,0.0,1695412771.675669,0.0,2023-09-22 14:59:31.675
18.0,-187500.02235174447,-187500.02235174447,-40529.07711614098,-29887.81391236948,51387.86749695153,70041.3817216613,105895.7926506749,49245.85512231054,80744.78277501855,35278.74175056717,-7219.501700341904,19732.99172317883,49386.04526353422,26008.04281330619,-16300.009644032676,-52370.91956984039,-0.086,0.894,0.458,192.0,0.0,0.0,0.0,0.0,0.0,0.0,0.0,0.0,0.0,1695412771.675674,0.0,2023-09-22 14:59:31.675
20.0,-187500.02235174447,-187500.02235174447,-40490.2074325332,-29874.15699650729,51383.82183120511,70046.61202986384,105891.00937736146,49255.24285498176,80801.33268849048,35305.27327123562,-7224.62024982217,19723.626342252057,49470.244284897366,26002.834856848105,-16301.529562655636,-52352.07704926456,-0.086,0.894,0.458,192.0,0.0,0.0,0.0,0.0,0.0,0.0,0.0,0.0,0.0,1695412771.675678,0.0,2023-09-22 14:59:31.675
22.0,-187500.02235174447,-187500.02235174447,-40562.64943631285,-29928.40468030032,51402.17261340292,70011.96682595812,105902.1405461002,49210.00292420422,80753.38819663384,35273.667904575814,-7221.803930020801,19732.38822607854,49382.71485361039,26015.798868632184,-16296.07573700854,-52451.25173941276,-0.086,0.894,0.458,192.0,0.0,0.0,0.0,0.0,0.0,0.0,0.0,0.0,0.0,1695412771.675682,0.0,2023-09-22 14:59:31.675
24.0,-187500.02235174447,-187500.02235174447,-40463.00535953109,-29865.3504091919,51384.47003179431,70054.01045727855,105917.94322943012,49263.02126205221,80789.26274648462,35307.240224747686,-7244.043915753832,19709.32122580066,49475.206372166445,26000.10794402456,-16315.454699451291,-52401.87673591098,-0.086,0.894,0.458,192.0,0.0,0.0,0.0,0.0,0.0,0.0,0.0,0.0,0.0,1695412771.675686,0.0,2023-09-22 14:59:31.675
26.0,-187500.02235174447,-187500.02235174447,-40559.94487523376,-29932.45034604673,51396.47291856682,70008.7258230121,105894.20567681856,49201.08457816656,80733.04810917951,35278.80880580054,-7231.86221502569,19715.26678982577,49386.20172574541,26009.65213890697,-16305.105841768484,-52474.385794924,-0.086,0.888,0.458,192.0,126.5,40.0,13.5,96.0,7.0,40.0,0.0,0.0,0.0,1695412771.67569,0.0,2023-09-22 14:59:31.675
28.0,-187500.02235174447,-187500.02235174447,-40430.55062658199,-29849.659484584277,51374.85878167854,70073.94821333268,105942.99953496452,49283.07077682862,80794.24718549814,35310.90591083836,-7248.62602336717,19700.8499146521,49469.61843605262,25999.169170757435,-16315.65586515139,-52452.72695454681,-0.086,0.888,0.458,192.0,0.0,0.0,0.0,0.0,0.0,0.0,0.0,0.0,0.0,1695412771.675693,0.0,2023-09-22 14:59:31.675
30.0,-187500.02235174447,-187500.02235174447,-40519.44351428074,-29904.287148033043,51387.576924273606,70033.51390761303,105883.63330169122,49226.09618021205,80746.6156180639,35300.93703281129,-7241.093485485731,19713.99274039182,49397.22113576188,26003.52776092622,-16317.980446574742,-52469.11078323255,-0.086,0.888,0.458,192.0,0.0,0.0,0.0,0.0,0.0,0.0,0.0,0.0,0.0,1695412771.736103,0.0,2023-09-22 14:59:31.736
32.0,-187500.02235174447,-187500.02235174447,-40393.55848950845,-29825.541952316995,51387.576924273606,70090.75672516307,105958.57870084986,49298.80640492516,80770.0178945086,35314.929224840314,-7238.075999984265,19723.38047306305,49448.78661022027,26020.80565939017,-16305.977559802242,-52468.57434136562,-0.086,0.888,0.458,192.0,0.0,0.0,0.0,0.0,0.0,0.0,0.0,0.0,0.0,1695412771.736119,0.0,2023-09-22 14:59:31.736
34.0,-187500.02235174447,-187500.02235174447,-40506.25598505211,-29899.168598552777,51390.59440977507,70030.04938722246,105878.98413884452,49222.27403191019,80749.72251054317,35302.36754445643,-7225.760188789391,19725.07920564165,49403.50197595382,26016.33531049911,-16304.390585945916,-52485.3381497071,-0.086,0.888,0.458,192.0,0.0,0.0,0.0,0.0,0.0,0.0,0.0,0.0,0.0,1695412771.736123,0.0,2023-09-22 14:59:31.736
36.0,-187500.02235174447,-187500.02235174447,-40397.96178316615,-29839.981179235125,51398.99866569027,70073.97056507714,105969.73222133306,49282.62374193952,80784.9712115492,35301.11584676693,-7226.184871934041,19724.229839352352,49436.49315076985,26023.018482091247,-16298.825001576544,-52517.502309978285,-0.084,0.888,0.454,192.0,126.5,48.0,13.5,96.0,7.0,24.0,0.0,0.0,0.0,1695412771.736126,0.0,2023-09-22 14:59:31.736
38.0,-187500.02235174447,-187500.02235174447,-40504.9595838737,-29907.77402016807,51387.82279346261,70023.20975341914,105878.67121442214,49215.27793589568,80749.52134484307,35306.41321020284,-7224.933174244545,19724.073377141165,49411.414493491,26016.4917727103,-16305.21760049076,-52518.41873150096,-0.084,0.888,0.454,192.0,0.0,0.0,0.0,0.0,0.0,0.0,0.0,0.0,0.0,1695412771.73613,0.0,2023-09-22 14:59:31.736
40.0,-187500.02235174447,-187500.02235174447,-40384.43897777069,-29839.891772257302,51398.57398254562,70076.83158836742,105972.48148590108,49281.64026518349,80779.1150545019,35299.75239035516,-7227.056589967799,19723.358121318597,49425.09376109765,26014.86009536506,-16307.497478425204,-52557.91426395349,-0.084,0.888,0.454,192.0,0.0,0.0,0.0,0.0,0.0,0.0,0.0,0.0,0.0,1695412771.736133,0.0,2023-09-22 14:59:31.736
42.0,-187500.02235174447,-187500.02235174447,-40469.44266193422,-29890.093790303923,51381.4748980373,70034.00564599106,105869.99873757348,49225.895014511945,80773.46006315471,35312.22466376122,-7225.33550564474,19722.061720140187,49429.20648207742,26011.306167996667,-16315.521754684658,-52528.7005339504,-0.084,0.888,0.454,192.0,0.0,0.0,0.0,0.0,0.0,0.0,0.0,0.0,0.0,1695412771.736136,0.0,2023-09-22 14:59:31.736
44.0,-187500.02235174447,-187500.02235174447,-40370.69265493067,-29839.645903068296,51388.44864230736,70067.8908905853,105950.97910773504,49274.93474184689,80775.20349922222,35291.41518967333,-7231.370476647673,19716.496135770816,49417.047133093736,26007.28285399471,-16320.483841953735,-52579.03666246375,-0.084,0.888,0.454,192.0,0.0,0.0,0.0,0.0,0.0,0.0,0.0,0.0,0.0,1695412771.736139,0.0,2023-09-22 14:59:31.736
46.0,-187500.02235174447,-187500.02235174447,-40453.70703383768,-29892.083095560443,51366.9239123969,70026.11548019832,105839.0862749918,49214.87560449548,80765.36873166189,35302.8816345789,-7234.320906915773,19716.853763682106,49434.503845513325,26001.3372899696,-16330.631533936446,-52554.87442670756,-0.088,0.894,0.456,192.0,126.5,32.0,13.5,120.0,7.0,32.0,0.0,0.0,0.0,1695412771.796462,0.0,2023-09-22 14:59:31.796
48.0,-187500.02235174447,-187500.02235174447,-40360.00852108104,-29843.13277520332,51381.07256663711,70062.52647191602,105949.74976179002,49263.04361379667,80755.82453677947,35274.74078830967,-7237.204281950508,19719.62537999456,49392.95195257091,26002.387821959,-16329.648057180411,-52628.14344503206,-0.088,0.894,0.456,192.0,0.0,0.0,0.0,0.0,0.0,0.0,0.0,0.0,0.0,1695412771.796472,0.0,2023-09-22 14:59:31.796
