Sample Index,EXG Channel 0,EXG Channel 1,EXG Channel 2,EXG Channel 3,EXG Channel 4,EXG Channel 5,EXG Channel 6,EXG Channel 7,EXG Channel 8,EXG Channel 9,EXG Channel 10,EXG Channel 11,EXG Channel 12,EXG Channel 13,EXG Channel 14,EXG Channel 15,Accel Channel 0,Accel Channel 1,Accel Channel 2,Other,Other.1,Other.2,Other.3,Other.4,Other.5,Other.6,Analog Channel 0,Analog Channel 1,Analog Channel 2,Timestamp,Other.7,Timestamp (Formatted)
42.0,31523.26870241984,52135.86862514837,45546.75317367949,8076.1993618249135,59087.395261215606,50344.01867914423,-187500.02235174447,47263.27774086926,41971.72575851986,67670.8227599648,56093.312036193856,12472.452220016983,69896.54241759091,-137418.86018739466,77148.40944390411,61446.68894370663,0.0,0.0,0.0,192.0,0.0,0.0,0.0,0.0,0.0,0.0,0.0,0.0,0.0,1696030297.107227,0.0,2023-09-29 18:31:37.107
44.0,31522.41933613054,52135.64510770382,45594.34003762485,8070.253797799802,59122.80042443281,50339.39186804198,-187500.02235174447,47259.16501988948,41981.85109875812,67657.18819584706,56063.42775385711,12469.345327537696,69874.3918388357,-137447.55982727525,77086.45040827399,61431.02037084346,0.0,0.0,0.0,192.0,0.0,0.0,0.0,0.0,0.0,0.0,0.0,0.0,0.0,1696030297.107236,0.0,2023-09-29 18:31:37.107
46.0,31527.940217011004,52146.5080555091,45563.42757504316,8083.888361917539,59106.50600272489,50353.02643215972,-187500.02235174447,47271.52553457327,41986.05322671571,67673.34850708825,56098.5423443964,12475.51440900736,69917.66481610118,-137443.35769931765,77150.33169392726,61451.96395539808,0.0,0.0,0.0,192.0,0.0,0.0,0.0,0.0,0.0,0.0,0.0,0.0,0.0,1696030297.10724,0.0,2023-09-29 18:31:37.107
48.0,31517.591359328195,52131.063000090486,45582.51596480799,8066.11872507557,59123.33686629974,50337.40256278546,-187500.02235174447,47256.3039965992,41979.8617935016,67657.34465805825,56066.5346463364,12471.46874326095,69875.93410920312,-137430.4383910225,77092.6418414881,61447.71712395157,0.07,1.02,-0.042,192.0,1.0,24.0,15.5,112.0,127.0,88.0,0.0,0.0,0.0,1696030297.107243,0.0,2023-09-29 18:31:37.107
50.0,31527.962568755454,52140.763657184085,45550.26239755898,8074.366518779579,59099.57696194375,50353.87579844902,-187500.02235174447,47267.59162754913,41979.63827605704,67662.03852439387,56096.46363216206,12467.311318792265,69915.29553118891,-137445.61522550764,77149.59408636023,61446.13015009525,0.07,1.02,-0.042,192.0,0.0,0.0,0.0,0.0,0.0,0.0,0.0,0.0,0.0,1696030297.107246,0.0,2023-09-29 18:31:37.107
52.0,31527.11320246616,52135.17572107026,45579.52083105098,8067.191608809425,59120.028808120354,50338.81072268614,-187500.02235174447,47263.34479610263,41981.18054642445,67663.44668429455,56058.04098344338,12471.267577560851,69865.47349279803,-137441.9048359281,77077.42030351404,61436.47419649056,0.07,1.02,-0.042,192.0,0.0,0.0,0.0,0.0,0.0,0.0,0.0,0.0,0.0,1696030297.107249,0.0,2023-09-29 18:31:37.107
54.0,31538.736109582915,52145.97161364217,45555.62681622825,8071.371385022568,59104.56140095728,50349.427801302416,-187500.02235174447,47265.60232229261,41987.72960754986,67667.13472212967,56108.42181544565,12469.390031026607,69920.21291496909,-137458.66864426955,77155.07026375178,61447.73947569603,0.07,1.02,-0.042,192.0,0.0,0.0,0.0,0.0,0.0,0.0,0.0,0.0,0.0,1696030297.107253,0.0,2023-09-29 18:31:37.107
56.0,31536.16565897056,52141.41185777329,45569.35078732381,8062.07305932916,59120.00645637589,50338.00605988575,-187500.02235174447,47257.77921173325,41987.4613866164,67663.93842267257,56062.26546314544,12479.582426498226,69872.11196090127,-137439.82612369373,77083.3435157947,61434.28372553393,0.07,1.02,-0.042,192.0,0.0,0.0,0.0,0.0,0.0,0.0,0.0,0.0,0.0,1696030297.107256,0.0,2023-09-29 18:31:37.107
58.0,31540.792470072804,52150.84429393343,45559.583074996845,8063.727088418853,59104.27082827936,50343.81751344413,-187500.02235174447,47264.77530774776,41988.958953494905,67669.7722279754,56106.72308286704,12475.201484584986,69924.43739467113,-137467.67639728505,77151.51633638339,61435.58012671234,0.074,1.02,-0.04,192.0,1.0,40.0,15.5,112.0,127.0,96.0,0.0,0.0,0.0,1696030297.107259,0.0,2023-09-29 18:31:37.107
0.0,15846.13512112321,26135.51481193481,22790.03981233118,4057.243950038428,29586.62415583422,25198.64144309061,-93750.01117587223,23583.683202705768,20988.645671444618,33838.864724500745,28035.1672214469,6240.405886221634,34937.31885401235,-68687.08952511425,38559.30728427259,30730.25116089001,0.068,1.022,-0.036,192.0,1.0,16.0,15.5,120.0,127.0,112.0,0.0,0.0,0.0,1696030297.214347,0.0,2023-09-29 18:31:37.214
2.0,31695.26537600343,52275.67878671632,45600.35265688332,8117.907716978517,59185.43001239658,50407.98937177532,-187500.02235174447,47175.45773690436,42248.30624440983,67978.96390902567,55863.647861915575,12566.418953707094,70030.98816048958,-137425.3868967756,77229.63568325469,61532.117311014816,0.068,1.022,-0.036,192.0,0.0,0.0,0.0,0.0,0.0,0.0,0.0,0.0,0.0,1696030297.272575,0.0,2023-09-29 18:31:37.272
4.0,31688.51514917793,52269.50970524666,45585.91342996519,8111.112786664104,59177.89747451514,50406.961191530376,-187500.02235174447,47169.46746939033,42253.67066307911,67996.68884237872,55878.57882721172,12569.481142697472,70028.26124766603,-137319.37257282407,77251.47333758752,61567.6789364432,0.068,1.022,-0.036,192.0,0.0,0.0,0.0,0.0,0.0,0.0,0.0,0.0,0.0,1696030297.272585,0.0,2023-09-29 18:31:37.272
6.0,31695.243024258976,52278.00336813968,45596.08347369236,8120.075836190682,59190.05682349883,50422.115674271074,-187500.02235174447,47171.56853336913,42252.41896538961,67974.38180141232,55861.85972235915,12559.065229781298,70019.25349465055,-137422.6376322076,77225.5229622749,61525.99293303406,0.068,1.022,-0.036,192.0,0.0,0.0,0.0,0.0,0.0,0.0,0.0,0.0,0.0,1696030297.272589,0.0,2023-09-29 18:31:37.272
8.0,31695.82416961481,52282.69723447529,45589.9590957116,8121.908679236017,59175.03645122486,50423.41207544948,-187500.02235174447,47178.54227763919,42260.64440734916,68002.32148198146,55886.51369649336,12573.34799448824,70029.781166289,-137348.42984061598,77246.84652648527,61563.365049763335,0.07,1.024,-0.034,192.0,1.0,24.0,16.0,0.0,127.0,120.0,0.0,0.0,0.0,1696030297.272592,0.0,2023-09-29 18:31:37.272
10.0,31694.818341114325,52280.48441177421,45594.13887192475,8120.433464101967,59187.061689741815,50419.14289225852,-187500.02235174447,47174.02722525922,42257.38105265869,67985.51297015107,55869.01228058485,12567.804761863325,70028.82004127742,-137408.8242541342,77228.78631696539,61541.63915415277,0.07,1.024,-0.034,192.0,0.0,0.0,0.0,0.0,0.0,0.0,0.0,0.0,0.0,1696030297.272595,0.0,2023-09-29 18:31:37.272
12.0,31700.138056294687,52288.66515024485,45583.81236598639,8129.687086306463,59183.08307922877,50434.27502325476,-187500.02235174447,47184.71135910885,42260.8232213048,68007.06005180598,55887.832449416215,12572.431572965572,70042.85693679535,-137344.33947138066,77256.32366613433,61578.452477270665,0.07,1.024,-0.034,192.0,0.0,0.0,0.0,0.0,0.0,0.0,0.0,0.0,0.0,1696030297.272599,0.0,2023-09-29 18:31:37.272
14.0,31695.31007949234,52283.43484204231,45585.13111890926,8119.338228623656,59187.57577986429,50420.148720759,-187500.02235174447,47172.19438221388,42266.05352950734,67989.6927463642,55869.41461198505,12573.616215421704,70026.33899764287,-137391.76987311483,77224.27126458542,61563.54386371897,0.07,1.024,-0.034,192.0,0.0,0.0,0.0,0.0,0.0,0.0,0.0,0.0,0.0,1696030297.272602,0.0,2023-09-29 18:31:37.272
16.0,31695.734762636992,52284.59713275399,45581.64424677423,8121.819272258195,59182.90426527313,50435.52672094425,-187500.02235174447,47191.886269079005,42269.428642920095,68013.09502280892,55887.27365580484,12577.416011979103,70039.77239606052,-137389.80291960275,77229.81449721033,61578.16190459274,0.07,1.024,-0.034,192.0,0.0,0.0,0.0,0.0,0.0,0.0,0.0,0.0,0.0,1696030297.332237,0.0,2023-09-29 18:31:37.332
18.0,31696.94175683758,52283.23367634221,45584.61702878679,8114.532603565765,59185.7205850745,50422.36154346008,-187500.02235174447,47174.85423980406,42268.84749756426,67997.15822901229,55872.47680097542,12573.795029377348,70032.44102387918,-137392.82040510423,77210.90492140113,61567.16484632073,0.07,1.022,-0.024,192.0,1.0,24.0,15.5,120.0,127.5,32.0,0.0,0.0,0.0,1696030297.33225,0.0,2023-09-29 18:31:37.332
20.0,31694.550120180866,52284.97711240973,45579.52083105098,8114.152623910025,59174.50000935794,50430.49757844181,-187500.02235174447,47183.347902697074,42264.24303820646,68009.89872335181,55896.862554176165,12571.20222702053,70049.1824804762,-137400.7776261303,77244.07491017281,61577.78192493701,0.07,1.022,-0.024,192.0,0.0,0.0,0.0,0.0,0.0,0.0,0.0,0.0,0.0,1696030297.332253,0.0,2023-09-29 18:31:37.332
22.0,31701.590919684284,52293.53783053611,45579.565534539885,8123.965039725905,59192.29199794436,50426.07193303966,-187500.02235174447,47177.80467007216,42267.77461383041,68002.27677849255,55870.2863300188,12577.125439301186,70029.02120697752,-137357.0799657202,77227.44521229807,61579.2347883266,0.07,1.022,-0.024,192.0,0.0,0.0,0.0,0.0,0.0,0.0,0.0,0.0,0.0,1696030297.332256,0.0,2023-09-29 18:31:37.332
24.0,31691.91261433513,52288.2404671002,45592.52954632397,8122.489824591855,59186.63700659717,50437.53837794523,-187500.02235174447,47200.31287673866,42275.39655868967,68017.0512815775,55898.62834198813,12579.762945146913,70047.23787870859,-137414.76981815934,77243.62787528371,61584.64391048478,0.07,1.022,-0.024,192.0,0.0,0.0,0.0,0.0,0.0,0.0,0.0,0.0,0.0,1696030297.33226,0.0,2023-09-29 18:31:37.332
26.0,31697.947585338068,52292.48729854671,45585.511098565,8130.424693873489,59193.83426831177,50426.74248537332,-187500.02235174447,47187.706492865866,42267.10406149674,68004.93663608273,55866.39712648358,12575.851389867234,70023.74619528606,-137321.33952633617,77237.97288393651,61600.9383321927,0.07,1.022,-0.024,192.0,0.0,0.0,0.0,0.0,0.0,0.0,0.0,0.0,0.0,1696030297.332263,0.0,2023-09-29 18:31:37.332
28.0,31695.444189959075,52290.29682759009,45602.83370051786,8131.385818885067,59186.52524787489,50436.867825611575,-187500.02235174447,47214.617993190055,42274.10015751125,68019.44291823423,55888.77122268334,12581.528732958885,70047.2825821975,-137425.81157992026,77238.486974059,61571.255215556055,0.07,1.024,-0.024,192.0,1.0,24.0,16.0,0.0,127.5,32.0,0.0,0.0,0.0,1696030297.332266,0.0,2023-09-29 18:31:37.332
30.0,31704.67546041912,52300.869202717455,45597.75985452651,8146.048563247748,59188.35809092023,50429.111770285584,-187500.02235174447,47197.09422553709,42270.32271269831,68015.82193563247,55864.07254506023,12581.841657381256,70017.55476207194,-137318.4114478125,77230.35093907725,61597.36205307985,0.07,1.024,-0.024,192.0,0.0,0.0,0.0,0.0,0.0,0.0,0.0,0.0,0.0,1696030297.332269,0.0,2023-09-29 18:31:37.332
32.0,31698.931062094103,52299.34928409449,45622.65969784972,8154.095191251659,59188.045166497854,50451.754087418805,-187500.02235174447,47222.03877234922,42280.26923898092,68021.58868570194,55888.70416744998,12589.195381307052,70036.33022741441,-137456.90285645757,77222.974863407,61563.34269801888,0.07,1.024,-0.024,192.0,0.0,0.0,0.0,0.0,0.0,0.0,0.0,0.0,0.0,1696030297.392558,0.0,2023-09-29 18:31:37.392
34.0,31698.528730693903,52298.03053117163,45618.12229372529,8167.081554780192,59186.301730430336,50436.91252910048,-187500.02235174447,47209.43238847642,42276.22357323451,68024.3603020144,55869.325205007226,12587.094317328254,70019.99110221757,-137311.30359307572,77236.05063391336,61609.67786427473,0.07,1.024,-0.024,192.0,0.0,0.0,0.0,0.0,0.0,0.0,0.0,0.0,0.0,1696030297.39257,0.0,2023-09-29 18:31:37.392
36.0,31692.158483524145,52294.72247299224,45644.40794520473,8173.51885718332,59187.08404148628,50445.115619315584,-187500.02235174447,47227.42554276295,42280.51510816993,68014.19025828723,55882.736251680406,12585.127363816186,70036.75491055906,-137443.76003071785,77229.54627627686,61576.77609643652,0.07,1.024,-0.024,192.0,0.0,0.0,0.0,0.0,0.0,0.0,0.0,0.0,0.0,1696030297.392575,0.0,2023-09-29 18:31:37.392
38.0,31701.680326662103,52302.07619691804,45640.60814864733,8186.0805375672035,59179.97618674948,50428.68708714093,-187500.02235174447,47215.020324590245,42274.39073018917,68020.29228452353,55870.778068396816,12585.14971556064,70012.70443352514,-137271.67395015646,77247.69589277457,61628.922716250745,0.07,1.018,-0.024,192.0,1.0,24.0,15.5,104.0,127.5,32.0,0.0,0.0,0.0,1696030297.392604,0.0,2023-09-29 18:31:37.392
40.0,31709.45873373255,52309.42992084383,45671.09592808437,8202.82199416423,59193.78956482287,50454.03396535325,-187500.02235174447,47238.24378707932,42292.428587964605,68020.26993277908,55872.745021908886,12601.06415761282,70038.20777394864,-137443.6035685067,77220.87379942821,61575.90437840276,0.07,1.018,-0.024,192.0,0.0,0.0,0.0,0.0,0.0,0.0,0.0,0.0,0.0,1696030297.392608,0.0,2023-09-29 18:31:37.392
42.0,31714.26435879044,52315.129615679936,45664.70332917015,8211.96385764645,59188.20162870904,50446.16615130498,-187500.02235174447,47229.77247593075,42285.41014020564,68037.63723822085,55871.26980677484,12599.320721545306,70029.93762850018,-137277.7536246483,77246.84652648527,61640.7020855787,0.07,1.018,-0.024,192.0,0.0,0.0,0.0,0.0,0.0,0.0,0.0,0.0,0.0,1696030297.392613,0.0,2023-09-29 18:31:37.392
44.0,31712.78914365639,52315.37548486894,45693.76059696205,8219.205822849968,59201.03153002638,50454.212779308895,-187500.02235174447,47246.13395287204,42296.54130894438,68033.0104271186,55872.3873939976,12607.903791416144,70042.09697748387,-137447.55982727525,77217.65514822664,61584.77802095152,0.07,1.018,-0.024,192.0,0.0,0.0,0.0,0.0,0.0,0.0,0.0,0.0,0.0,1696030297.392617,0.0,2023-09-29 18:31:37.392
46.0,31710.621024444223,52314.95080172429,45681.10950960035,8226.604250264674,59192.2696461999,50444.57917744866,-187500.02235174447,47235.583929489134,42293.32265774282,68043.58280224596,55874.75667890986,12606.54033500437,70031.72576805661,-137278.06654907067,77256.27896264542,61646.06650424797,0.07,1.018,-0.024,192.0,0.0,0.0,0.0,0.0,0.0,0.0,0.0,0.0,0.0,1696030297.452703,0.0,2023-09-29 18:31:37.452
48.0,31715.337242524296,52319.37644712645,45703.863585455845,8237.087218414214,59205.90421031764,50463.5111050023,-187500.02235174447,47248.19031336193,42302.643335180685,68030.3058660395,55860.496265947375,12612.217678096018,70039.77239606052,-137429.0972863552,77227.86989544272,61589.56129426495,0.072,1.018,-0.026,192.0,1.0,32.0,15.5,104.0,127.5,24.0,0.0,0.0,0.0,1696030297.452716,0.0,2023-09-29 18:31:37.452
50.0,31719.22644605952,52323.66798206187,45697.9850766641,8241.803436494283,59196.158849735126,50458.14668633303,-187500.02235174447,47244.79284820472,42300.98930609099,68052.6129070059,55873.72849866492,12617.895021187667,70037.33605591489,-137294.02569461177,77260.10111094727,61642.62433560185,0.072,1.018,-0.026,192.0,0.0,0.0,0.0,0.0,0.0,0.0,0.0,0.0,0.0,1696030297.452719,0.0,2023-09-29 18:31:37.452
52.0,31720.344033282287,52324.986734984726,45710.97144019264,8249.805361009283,59205.14425100616,50459.80071542272,-187500.02235174447,47252.21362736388,42307.94069861659,68033.34570328542,55865.592463683184,12618.275000843409,70046.18734671919,-137425.5433589868,77232.38494782269,61591.2376750991,0.072,1.018,-0.026,192.0,0.0,0.0,0.0,0.0,0.0,0.0,0.0,0.0,0.0,1696030297.452723,0.0,2023-09-29 18:31:37.452
54.0,31719.94170188209,52327.08779896353,45697.314524330446,8254.856855256183,59193.14136423366,50455.77740142076,-187500.02235174447,47247.29624358371,42306.95722186056,68056.14448262984,55880.21050455696,12624.377027079703,70052.55759388895,-137308.64373548553,77268.99710524049,61634.89063202032,0.072,1.018,-0.026,192.0,0.0,0.0,0.0,0.0,0.0,0.0,0.0,0.0,0.0,1696030297.452726,0.0,2023-09-29 18:31:37.452
56.0,31712.900902378668,52321.18693842732,45708.557451791465,8254.946262234005,59202.931428305084,50455.64329095403,-187500.02235174447,47242.26710108127,42309.34885851728,68033.54686898552,55862.57497818172,12619.996085166464,70046.25440195255,-137401.87286160863,77243.35965435025,61597.51851529104,0.072,1.018,-0.026,192.0,0.0,0.0,0.0,0.0,0.0,0.0,0.0,0.0,0.0,1696030297.452729,0.0,2023-09-29 18:31:37.452
58.0,31704.85427437476,52315.68840929132,45701.42724531022,8253.985137222426,59189.74389907646,50458.2584450553,-187500.02235174447,47245.150476116,42310.332335273306,68055.1610058738,55877.28242603332,12623.237088112484,70044.04157925148,-137320.82543621366,77267.47718661751,61633.9965622421,0.072,1.022,-0.032,192.0,1.0,32.0,15.5,120.0,127.5,0.0,0.0,0.0,0.0,1696030297.452732,0.0,2023-09-29 18:31:37.452
60.0,31699.42280047212,52306.90417372038,45709.250355869575,8250.990003465415,59194.50482064544,50447.28373852775,-187500.02235174447,47235.87450216705,42298.2847450119,68019.84524963443,55856.96469032344,12606.339169304272,70040.532355372,-137364.29957917923,77247.87470673022,61612.76240500956,0.072,1.022,-0.032,192.0,0.0,0.0,0.0,0.0,0.0,0.0,0.0,0.0,0.0,1696030297.452735,0.0,2023-09-29 18:31:37.452
62.0,31701.389753984186,52314.704932535285,45700.04143715399,8254.499227344899,59186.83817229726,50460.20304682291,-187500.02235174447,47244.882255182536,42296.85423336676,68037.19020333173,55870.75571665236,12609.870744928212,70050.41182642124,-137314.07520938816,77272.34986690877,61637.48343437713,0.072,1.022,-0.032,192.0,0.0,0.0,0.0,0.0,0.0,0.0,0.0,0.0,0.0,1696030297.512179,0.0,2023-09-29 18:31:37.512
64.0,31702.95437609606,52314.72728427974,45703.64006801129,8255.3485936342,59199.8245358258,50446.63553793854,-187500.02235174447,47240.478961524845,42304.69969567057,68030.23881080614,55846.97346055192,12608.507288516435,70038.29718092647,-137354.08483196318,77239.04576767037,61607.95677995167,0.072,1.022,-0.032,192.0,0.0,0.0,0.0,0.0,0.0,0.0,0.0,0.0,0.0,1696030297.512191,0.0,2023-09-29 18:31:37.512
66.0,31701.45680921755,52311.53098482263,45695.973419663125,8261.785896037329,59197.16467823562,50455.9115118875,-187500.02235174447,47253.51002854229,42302.35276250277,68045.28153482456,55865.65951891655,12610.92127691761,70053.40696017825,-137350.7097185504,77265.24201217199,61622.17248942525,0.072,1.022,-0.032,192.0,0.0,0.0,0.0,0.0,0.0,0.0,0.0,0.0,0.0,1696030297.512195,0.0,2023-09-29 18:31:37.512
68.0,31695.667707403627,52301.31623760656,45696.62162025233,8251.906424988083,59208.76523360792,50443.61805243708,-187500.02235174447,47234.466342266365,42298.57531768981,68031.26699105109,55836.311678446735,12605.869782670712,70036.01730299203,-137344.87591324758,77245.57247705132,61608.91790496325,0.066,1.026,-0.032,192.0,1.0,8.0,16.0,8.0,127.5,0.0,0.0,0.0,0.0,1696030297.512198,0.0,2023-09-29 18:31:37.512
70.0,31697.768771382427,52302.3444178515,45699.884974942805,8259.662480314075,59202.08206201578,50463.10877360211,-187500.02235174447,47254.53820878723,42296.96599208903,68034.19506957472,55853.522521677325,12602.069986113307,70048.62368686483,-137374.8719543066,77264.10207320478,61608.33675960741,0.066,1.026,-0.032,192.0,0.0,0.0,0.0,0.0,0.0,0.0,0.0,0.0,0.0,1696030297.512202,0.0,2023-09-29 18:31:37.512
72.0,31709.65989943265,52306.03245568663,45703.57301277793,8262.322337904256,59211.26862898692,50445.31678501568,-187500.02235174447,47232.14176084301,42299.24587002348,68019.91230486779,55832.86950980062,12601.421785524106,70033.84918377986,-137327.91093920602,77252.50151783247,61614.43878584371,0.066,1.026,-0.032,192.0,0.0,0.0,0.0,0.0,0.0,0.0,0.0,0.0,0.0,1696030297.512205,0.0,2023-09-29 18:31:37.512
74.0,31712.61032970075,52310.927487722336,45716.71583851765,8265.675099572552,59205.27836147289,50460.717136945386,-187500.02235174447,47247.72092672836,42315.07090509783,68031.7587294291,55864.1396002936,12610.988332150975,70055.6868381127,-137413.04873383627,77259.22939291352,61589.85186694288,0.066,1.026,-0.032,192.0,0.0,0.0,0.0,0.0,0.0,0.0,0.0,0.0,0.0,1696030297.512208,0.0,2023-09-29 18:31:37.512
76.0,31711.626852944715,52307.55237430959,45705.42820756772,8263.395221638111,59209.34637896376,50440.93584310244,-187500.02235174447,47226.64323170701,42305.66082068215,68027.62365670486,55845.78881809579,12605.847430926256,70038.74421581558,-137311.43770354244,77260.99518072548,61616.4951463336,0.066,1.026,-0.032,192.0,0.0,0.0,0.0,0.0,0.0,0.0,0.0,0.0,0.0,1696030297.572037,0.0,2023-09-29 18:31:37.572
78.0,31707.782352898404,52305.65247603089,45709.89855645878,8265.988023994925,59205.032492283884,50456.40325026551,-187500.02235174447,47247.63151975054,42312.56750971884,68030.28351429505,55861.68090840351,12611.010683895433,70058.68197186971,-137413.92045187,77263.49857610448,61591.28237858801,0.062,1.022,-0.032,192.0,0.5,120.0,15.5,120.0,127.5,0.0,0.0,0.0,0.0,1696030297.572049,0.0,2023-09-29 18:31:37.572
80.0,31714.17495181262,52306.658304531375,45694.297038828976,8269.698413574508,59206.19478299556,50441.94167160293,-187500.02235174447,47234.041659121714,42303.80562589236,68026.17079331526,55838.94918429246,12605.601561737249,70037.22429719262,-137288.1024823311,77264.30323890487,61626.553431338485,0.062,1.022,-0.032,192.0,0.0,0.0,0.0,0.0,0.0,0.0,0.0,0.0,0.0,1696030297.572053,0.0,2023-09-29 18:31:37.572
82.0,31705.36836449723,52297.11410964896,45706.41168432375,8255.415648867565,59193.364881678215,50450.21181705139,-187500.02235174447,47255.789906476726,42311.025239351424,68024.69557818123,55857.79170486829,12604.327512303294,70062.3923614493,-137433.5899869907,77251.09335793178,61586.96849190813,0.062,1.022,-0.032,192.0,0.0,0.0,0.0,0.0,0.0,0.0,0.0,0.0,0.0,1696030297.572056,0.0,2023-09-29 18:31:37.572
84.0,31705.524826708417,52294.856583458975,45687.07742536991,8252.554625577286,59187.70989033102,50427.05540979569,-187500.02235174447,47230.06304860867,42300.25169852396,68020.18052580125,55838.703315103456,12594.604503465236,70036.93372451469,-137268.07531929915,77269.98058199651,61638.33280066643,0.062,1.022,-0.032,192.0,0.0,0.0,0.0,0.0,0.0,0.0,0.0,0.0,0.0,1696030297.57206,0.0,2023-09-29 18:31:37.572
86.0,31709.36932675473,52298.477566060734,45694.52055627353,8261.696489059506,59191.48733514397,50447.48490422784,-187500.02235174447,47244.32346157116,42308.43243699461,68013.22913327564,55847.86753033013,12597.376119777697,70057.65379162476,-137409.96419310145,77258.06710220184,61591.97528266613,0.062,1.022,-0.032,192.0,0.0,0.0,0.0,0.0,0.0,0.0,0.0,0.0,0.0,1696030297.572063,0.0,2023-09-29 18:31:37.572
88.0,31704.027259829916,52291.83909795751,45681.82476542291,8251.951128476992,59186.81582055281,50433.91739534347,-187500.02235174447,47229.32544104164,42307.56071896085,68025.38848225934,55840.08912325968,12601.511192501926,70039.99591350507,-137274.2891042577,77256.16720392313,61633.70598956419,0.064,1.022,-0.034,192.0,1.0,0.0,15.5,120.0,127.0,120.0,0.0,0.0,0.0,1696030297.572066,0.0,2023-09-29 18:31:37.572
90.0,31706.016565086436,52293.381368324925,45695.973419663125,8256.332070390234,59192.42610841109,50453.36341301959,-187500.02235174447,47251.27485409676,42313.2380620525,68010.45751696319,55839.15034999256,12599.387776778673,70063.62170739433,-137431.71244045644,77240.27511361541,61585.38151805181,0.064,1.022,-0.034,192.0,0.0,0.0,0.0,0.0,0.0,0.0,0.0,0.0,0.0,1696030297.57207,0.0,2023-09-29 18:31:37.572
92.0,31705.79304764188,52289.96155142327,45680.103681099856,8246.094971429702,59190.23563745447,50435.99610757782,-187500.02235174447,47237.327365556645,42307.31484977184,68025.76846191508,55840.42439942651,12599.901866901144,70047.97548627562,-137281.21814503887,77260.74931153648,61638.31044892198,0.064,1.022,-0.034,192.0,0.0,0.0,0.0,0.0,0.0,0.0,0.0,0.0,0.0,1696030297.632179,0.0,2023-09-29 18:31:37.632
94.0,31701.836788873294,52286.92171417734,45694.63231499581,8238.003639936882,59196.24825671295,50443.84156988163,-187500.02235174447,47245.88808368303,42313.685096941605,68006.74712738361,55840.446751170966,12598.11372734472,70060.40305619276,-137438.06033588175,77240.6327415267,61583.12399186182,0.064,1.022,-0.034,192.0,0.0,0.0,0.0,0.0,0.0,0.0,0.0,0.0,0.0,1696030297.63219,0.0,2023-09-29 18:31:37.632
96.0,31704.071963318824,52288.2404671002,45680.17073633322,8233.890918957106,59183.12778271768,50433.73858138783,-187500.02235174447,47227.62670846304,42302.933907858605,68015.26314202108,55844.917100062026,12595.766794176912,70045.69560834118,-137274.892601358,77264.21383192705,61638.82453904445,0.064,1.022,-0.034,192.0,0.0,0.0,0.0,0.0,0.0,0.0,0.0,0.0,0.0,1696030297.632194,0.0,2023-09-29 18:31:37.632
98.0,31708.22938778751,52292.0402636576,45690.56429750494,8242.764561505863,59185.877047285685,50440.3546977466,-187500.02235174447,47225.72681018434,42307.5830707053,68002.63440640383,55844.71593436193,12597.39847152215,70053.27284971153,-137405.40443723256,77239.51515430394,61583.19104709519,0.06,1.022,-0.034,192.0,0.5,112.0,15.5,120.0,127.0,120.0,0.0,0.0,0.0,1696030297.632197,0.0,2023-09-29 18:31:37.632
100.0,31705.56953019733,52292.10731889097,45672.973474618615,8247.592538308209,59174.5670645913,50442.00872683629,-187500.02235174447,47228.58783347462,42304.811454392846,68031.82578466246,55846.54877740727,12606.182707093085,70042.36519841733,-137299.6136307256,77247.29356137438,61618.46209984567,0.06,1.022,-0.034,192.0,0.0,0.0,0.0,0.0,0.0,0.0,0.0,0.0,0.0,1696030297.6322,0.0,2023-09-29 18:31:37.632
102.0,31705.524826708417,52294.498955547686,45688.843213181884,8254.63333781163,59186.59230310826,50444.98150884885,-187500.02235174447,47230.755952686784,42309.95235561757,68017.27479902205,55835.97640227991,12603.9251809031,70049.87538455431,-137438.26150158184,77208.33447078877,61563.78973290799,0.06,1.022,-0.034,192.0,0.0,0.0,0.0,0.0,0.0,0.0,0.0,0.0,0.0,1696030297.632203,0.0,2023-09-29 18:31:37.632
104.0,31697.2323295155,52287.70402523327,45669.41954725022,8247.793704008307,59171.683689556565,50441.53934020273,-187500.02235174447,47233.46051376588,42305.81728289334,68032.71985444067,55853.18724551049,12600.527715745891,70044.44391065168,-137347.13343943757,77229.94860767706,61606.12393690633,0.06,1.022,-0.034,192.0,0.0,0.0,0.0,0.0,0.0,0.0,0.0,0.0,0.0,1696030297.632207,0.0,2023-09-29 18:31:37.632
106.0,31695.17596902561,52285.625312998935,45682.22709682311,8246.58670980772,59182.747803061946,50446.12144781607,-187500.02235174447,47234.10871435508,42301.90572761366,68009.92107509627,55836.5798993802,12593.330454031284,70037.98425650409,-137443.17888536202,77201.51718872991,61569.534131233,0.06,1.022,-0.034,192.0,0.0,0.0,0.0,0.0,0.0,0.0,0.0,0.0,0.0,1696030297.692473,0.0,2023-09-29 18:31:37.692
108.0,31681.56375665233,52272.08015585902,45661.88700936878,8235.097913157691,59161.64775629613,50450.03300309575,-187500.02235174447,47231.62767072054,42295.35666648825,68022.25923803559,55846.90640531855,12586.624930694692,70044.30980018494,-137359.69511982147,77241.50445956046,61615.48931783311,0.066,1.022,-0.032,192.0,1.0,8.0,15.5,120.0,127.5,0.0,0.0,0.0,0.0,1696030297.692485,0.0,2023-09-29 18:31:37.692
110.0,31686.525843921405,52273.0412808706,45666.87144838231,8237.020163180849,59172.98009073497,50440.48880821333,-187500.02235174447,47220.2953362817,42293.32265774282,67998.76755461306,55815.3233904032,12575.426706722585,70034.87736402481,-137394.04975104926,77221.2761308284,61585.60503549636,0.066,1.022,-0.032,192.0,0.0,0.0,0.0,0.0,0.0,0.0,0.0,0.0,0.0,1696030297.692489,0.0,2023-09-29 18:31:37.692
112.0,31689.72214337852,52277.22105708373,45660.85882912384,8240.887014971617,59170.32023314479,50453.18459906395,-187500.02235174447,47231.89589165401,42304.78910264839,68026.9531043712,55840.06677151523,12588.68129118458,70048.22135546463,-137373.84377406165,77237.25762811395,61595.037471656506,0.066,1.022,-0.032,192.0,0.0,0.0,0.0,0.0,0.0,0.0,0.0,0.0,0.0,1696030297.692496,0.0,2023-09-29 18:31:37.692
114.0,31687.55402416635,52272.21426632575,45662.31169251343,8234.58382303522,59183.95479726253,50441.31582275818,-187500.02235174447,47219.781246159226,42300.22934677951,68000.13101102485,55817.20093693745,12583.29452077085,70036.64315183678,-137389.26647773583,77214.23533132498,61582.14051510579,0.066,1.022,-0.032,192.0,0.0,0.0,0.0,0.0,0.0,0.0,0.0,0.0,0.0,1696030297.692499,0.0,2023-09-29 18:31:37.692
116.0,31678.74743685096,52264.6370249554,45658.31073025593,8227.744189231895,59178.18804719306,50454.54805547572,-187500.02235174447,47231.82883642064,42305.61611719324,68010.65868266328,55838.23392846989,12585.14971556064,70050.32241944343,-137412.15466405806,77231.35676757774,61585.87325642983,0.066,1.022,-0.032,192.0,0.0,0.0,0.0,0.0,0.0,0.0,0.0,0.0,0.0,1696030297.692503,0.0,2023-09-29 18:31:37.692
118.0,31676.60166938325,52260.591359208986,45654.13095404279,8218.356456560667,59182.59134085076,50437.51602620078,-187500.02235174447,47210.30410651018,42297.27891651141,67988.93278705273,55814.228154924895,12572.92331134359,70027.38952963227,-137380.59400088715,77218.57156974931,61587.14730586378,0.068,1.022,-0.034,192.0,1.0,16.0,15.5,120.0,127.0,120.0,0.0,0.0,0.0,1696030297.692506,0.0,2023-09-29 18:31:37.692
120.0,31673.584183881783,52259.96551036424,45648.09598303986,8220.032837394814,59175.10350645823,50451.3070525297,-187500.02235174447,47226.576176473645,42301.01165783544,67999.32634822445,55836.87047205812,12570.799895620334,70047.39434091978,-137404.15273954306,77245.0360351844,61592.53407627751,0.068,1.022,-0.034,192.0,0.0,0.0,0.0,0.0,0.0,0.0,0.0,0.0,0.0,1696030297.692509,0.0,2023-09-29 18:31:37.692
122.0,31677.004000783447,52264.659376699856,45648.99005281807,8216.81418619325,59177.85277102623,50436.9572325894,-187500.02235174447,47205.43142621892,42299.84936712377,68003.79669711551,55819.07848347169,12574.733802644469,70029.40118663326,-137337.45513408844,77232.11672688923,61602.81587872695,0.068,1.022,-0.034,192.0,0.0,0.0,0.0,0.0,0.0,0.0,0.0,0.0,0.0,1696030297.752846,0.0,2023-09-29 18:31:37.752
124.0,31670.9243262916,52255.22694053972,45648.87829409579,8213.997866391881,59169.89555000014,50450.18946530694,-187500.02235174447,47220.65296419299,42305.2361375375,68021.52163046857,55841.13965524909,12574.95732008902,70046.36616067484,-137407.19257678898,77249.77460500892,61591.95293092167,0.068,1.022,-0.034,192.0,0.0,0.0,0.0,0.0,0.0,0.0,0.0,0.0,0.0,1696030297.752856,0.0,2023-09-29 18:31:37.752
126.0,31669.762035579926,52248.29789975857,45649.21357026263,8213.617886736141,59183.70892807352,50437.58308143415,-187500.02235174447,47212.6957431669,42300.78814039089,67999.57221741346,55816.06099797023,12572.319814243296,70028.66357906623,-137325.36284033812,77233.56959027881,61608.40381484078,0.068,1.022,-0.034,192.0,0.0,0.0,0.0,0.0,0.0,0.0,0.0,0.0,0.0,1696030297.75286,0.0,2023-09-29 18:31:37.752
128.0,31662.38595990968,52241.97235607772,45652.275759253,8209.326351800722,59177.24927392594,50444.355660004105,-187500.02235174447,47230.06304860867,42309.25945153945,67991.57029289845,55836.64695461356,12569.749363630935,70058.99489629209,-137449.52678078733,77235.00010192396,61573.26687255703,0.066,1.022,-0.032,192.0,1.0,8.0,15.5,120.0,127.5,0.0,0.0,0.0,0.0,1696030297.752864,0.0,2023-09-29 18:31:37.752
130.0,31659.904916275136,52233.70221062926,45646.26313999453,8205.794776176785,59178.88095127117,50422.09332252661,-187500.02235174447,47204.894984352,42301.32458225782,67985.8482463179,55814.362265391625,12562.127418771675,70030.98816048958,-137321.7642094808,77233.34607283426,61604.313445605454,0.066,1.022,-0.032,192.0,0.0,0.0,0.0,0.0,0.0,0.0,0.0,0.0,0.0,1696030297.752868,0.0,2023-09-29 18:31:37.752
132.0,31648.97491323649,52220.872309311904,45656.81316337743,8200.05037785177,59175.50583785842,50443.28277627024,-187500.02235174447,47218.663658936464,42308.32067827233,67972.97364151163,55837.96570753643,12558.573491403282,70060.9842015486,-137451.76195523285,77240.96801769352,61568.0812678434,0.066,1.022,-0.032,192.0,0.0,0.0,0.0,0.0,0.0,0.0,0.0,0.0,0.0,1696030297.752874,0.0,2023-09-29 18:31:37.752
134.0,31656.08276797328,52225.2756029696,45644.16207601573,8207.582915733208,59174.94704424704,50438.36539249008,-187500.02235174447,47203.33036224012,42295.51312869944,67963.83177802942,55816.88801251508,12555.086619268252,70034.07270122442,-137297.33375279114,77245.90775321815,61608.38146309632,0.066,1.022,-0.032,192.0,0.0,0.0,0.0,0.0,0.0,0.0,0.0,0.0,0.0,1696030297.752879,0.0,2023-09-29 18:31:37.752
136.0,31640.92828523258,52207.66242833882,45657.729584900095,8203.693712197984,59174.29884365784,50446.27791002726,-187500.02235174447,47220.764722915264,42308.11951257223,67957.93091749321,55828.73443707639,12559.62402339268,70060.6936288707,-137470.58212406424,77221.29848257286,61550.33398274589,0.066,1.022,-0.032,192.0,0.0,0.0,0.0,0.0,0.0,0.0,0.0,0.0,0.0,1696030297.812236,0.0,2023-09-29 18:31:37.812
138.0,31635.183886907565,52199.05700672352,45645.39142196076,8200.408005763054,59166.25221565393,50427.68125864044,-187500.02235174447,47203.19625177339,42298.12828280071,67949.99604821159,55816.86566077062,12553.521997156382,70036.50904137004,-137305.0227528838,77239.35869209275,61608.24735262959,0.064,1.024,-0.036,192.0,1.0,0.0,16.0,0.0,127.0,112.0,0.0,0.0,0.0,1696030297.812248,0.0,2023-09-29 18:31:37.812
140.0,31629.819468238293,52191.41271011981,45654.80150637645,8191.109680069648,59167.70507904352,50438.99124133483,-187500.02235174447,47210.92995535493,42305.52671021542,67932.56168753645,55822.94533526246,12548.828130820768,70058.74902710307,-137469.93392347504,77214.88353191418,61546.53418618849,0.064,1.024,-0.036,192.0,0.0,0.0,0.0,0.0,0.0,0.0,0.0,0.0,0.0,1696030297.812253,0.0,2023-09-29 18:31:37.812
142.0,31613.68150874156,52174.76066050061,45635.288433466965,8175.99990081786,59150.40482883511,50424.842587094616,-187500.02235174447,47195.28373423621,42295.17785253261,67936.83087072741,55815.43514912548,12539.82037780528,70023.05329120795,-137319.79725596873,77228.60750300974,61593.83047745592,0.064,1.024,-0.036,192.0,0.0,0.0,0.0,0.0,0.0,0.0,0.0,0.0,0.0,1696030297.812257,0.0,2023-09-29 18:31:37.812
144.0,31599.91283415709,52158.17566611477,45644.36324171582,8165.829857090695,59157.37857310517,50427.79301736272,-187500.02235174447,47198.56944067114,42293.903803098656,67902.52094298851,55807.65674205504,12529.292706166829,70035.27969542501,-137453.9971296784,77214.21297958052,61545.39424722127,0.064,1.024,-0.036,192.0,0.0,0.0,0.0,0.0,0.0,0.0,0.0,0.0,0.0,1696030297.81226,0.0,2023-09-29 18:31:37.812
146.0,31592.20148232001,52146.03866887554,45617.65290709173,8157.380897686589,59150.29307011284,50425.15551151699,-187500.02235174447,47193.20502200187,42281.96797155953,67904.24202731157,55795.13976516006,12520.352008384709,70016.9289132272,-137292.6622382,77245.32660786231,61603.59818978288,0.064,1.024,-0.036,192.0,0.0,0.0,0.0,0.0,0.0,0.0,0.0,0.0,0.0,1696030297.812263,0.0,2023-09-29 18:31:37.812
148.0,31585.2053863055,52134.61692745888,45639.55761665793,8159.817237832218,59167.10158194323,50433.33624998764,-187500.02235174447,47199.55291742717,42284.538422171885,67883.29844275695,55785.39440457754,12517.446281605517,70028.1271371993,-137436.07103062523,77210.25672081193,61546.310668743936,0.06,1.024,-0.034,192.0,0.5,112.0,16.0,0.0,127.0,120.0,0.0,0.0,0.0,1696030297.812267,0.0,2023-09-29 18:31:37.812
150.0,31583.752522915904,52129.36426751188,45618.45756989212,8156.687993608474,59151.544767802334,50423.52383417176,-187500.02235174447,47187.17005099894,42281.05155003686,67893.93787311767,55792.90459071453,12512.707711780991,70019.6781777952,-137332.80597124173,77228.473392543,61583.66043372875,0.06,1.024,-0.034,192.0,0.0,0.0,0.0,0.0,0.0,0.0,0.0,0.0,0.0,1696030297.81227,0.0,2023-09-29 18:31:37.812
152.0,31565.80407211829,52111.37111322536,45637.27773872349,8150.764781327818,59164.59818656423,50419.88049982554,-187500.02235174447,47186.47714692082,42281.25271573696,67867.9204425717,55786.91432320051,12503.0517581763,70024.66261680872,-137456.25465586837,77196.68921192756,61539.38162796279,0.06,1.024,-0.034,192.0,0.0,0.0,0.0,0.0,0.0,0.0,0.0,0.0,0.0,1696030297.871893,0.0,2023-09-29 18:31:37.871
154.0,31565.51349944037,52112.041665559016,45613.40607564522,8149.4236766605,59155.43397133756,50419.522871914254,-187500.02235174447,47186.47714692082,42276.67060812362,67872.52490192949,55794.08923317066,12497.396766829106,70018.8288115059,-137351.4696778619,77224.00304365194,61590.79064020999,0.06,1.024,-0.034,192.0,0.0,0.0,0.0,0.0,0.0,0.0,0.0,0.0,0.0,1696030297.871903,0.0,2023-09-29 18:31:37.871
156.0,31556.662208636077,52103.81622359947,45628.94053804166,8149.893063294061,59165.44755285353,50417.22064223536,-187500.02235174447,47184.39843468648,42284.94075357208,67853.2129947201,55781.37109057559,12499.162554641076,70019.52171558401,-137452.3431005887,77183.14405478764,61543.31553498692,0.06,1.024,-0.034,192.0,0.0,0.0,0.0,0.0,0.0,0.0,0.0,0.0,0.0,1696030297.871907,0.0,2023-09-29 18:31:37.871
158.0,31547.47564166494,52095.546078151,45622.01149726052,8144.394534158056,59151.63417478016,50417.578270146645,-187500.02235174447,47191.14866151198,42283.912573327136,67861.28197446847,55798.4701750839,12493.932246438531,70020.16991617321,-137383.79030034426,77217.40927903763,61578.452477270665,0.066,1.022,-0.04,192.0,1.0,8.0,15.5,120.0,127.0,96.0,0.0,0.0,0.0,1696030297.87191,0.0,2023-09-29 18:31:37.871
160.0,31540.1442694836,52086.73949083561,45618.07759023638,8135.900871265039,59154.56225330381,50402.08851123912,-187500.02235174447,47175.167164226434,42276.35768370125,67839.28785792444,55785.43910806646,12477.101382863688,70017.55476207194,-137388.35005621315,77206.23340680997,61567.56717772093,0.066,1.022,-0.04,192.0,0.0,0.0,0.0,0.0,0.0,0.0,0.0,0.0,0.0,1696030297.871913,0.0,2023-09-29 18:31:37.871
162.0,31539.33960668321,52086.8959530468,45599.86091850531,8137.912528266017,59144.88394795465,50412.97381078885,-187500.02235174447,47189.092301022094,42277.51997441292,67853.23534646456,55797.8219744947,12478.621301486648,70021.19809641816,-137361.10327972213,77223.13132561819,61581.44761102768,0.066,1.022,-0.04,192.0,0.0,0.0,0.0,0.0,0.0,0.0,0.0,0.0,0.0,1696030297.871916,0.0,2023-09-29 18:31:37.871
164.0,31538.15496422708,52082.31384543346,45610.67916282168,8133.665696819508,59160.68663128455,50402.8484705506,-187500.02235174447,47177.58115262761,42280.626866892206,67840.40544514722,55779.38178531907,12481.32586256574,70011.27392188,-137381.64453287655,77186.16154028912,61559.47584622811,0.066,1.022,-0.04,192.0,0.0,0.0,0.0,0.0,0.0,0.0,0.0,0.0,0.0,1696030297.87192,0.0,2023-09-29 18:31:37.871
166.0,31521.1899901855,52063.96306323565,45599.2127179161,8119.673504790486,59151.00832593541,50403.47431939535,-187500.02235174447,47185.91835330944,42275.64242787867,67849.0108667625,55798.648989039546,12470.977004882932,70027.99302673257,-137387.81361434623,77212.11191560172,61577.11137260334,0.066,1.022,-0.04,192.0,0.0,0.0,0.0,0.0,0.0,0.0,0.0,0.0,0.0,1696030297.932422,0.0,2023-09-29 18:31:37.932
168.0,31530.33185366772,52070.46742087215,45588.34977011082,8117.1701094114915,59162.1618464186,50394.33245591312,-187500.02235174447,47161.30908266414,42271.395596432165,67828.82724151936,55762.59562523313,12460.85166464468,70007.09414566687,-137335.77875325427,77198.14207531716,61580.195913338175,0.064,1.02,-0.032,192.0,1.0,0.0,15.5,112.0,127.5,0.0,0.0,0.0,0.0,1696030297.932457,0.0,2023-09-29 18:31:37.932
170.0,31531.71766182395,52072.43437438421,45593.22245040208,8124.412074615011,59161.5136458294,50421.04279053722,-187500.02235174447,47188.71232136635,42279.15165175816,67842.01477074799,55785.59557027764,12470.932301394025,70033.3797971463,-137414.90392862607,77199.99727010695,61556.41365723773,0.064,1.02,-0.032,192.0,0.0,0.0,0.0,0.0,0.0,0.0,0.0,0.0,0.0,1696030297.932461,0.0,2023-09-29 18:31:37.932
172.0,31543.832307318728,52083.05145300049,45595.368217869785,8126.13315893807,59172.19777967904,50409.97867703184,-187500.02235174447,47172.41789965843,42276.11181451223,67833.87873576627,55771.84924743763,12479.358909053672,70007.49647706705,-137359.04691923226,77175.92444132858,61561.04046833998,0.064,1.02,-0.032,192.0,0.0,0.0,0.0,0.0,0.0,0.0,0.0,0.0,0.0,1696030297.932464,0.0,2023-09-29 18:31:37.932
174.0,31539.76428982786,52078.759918065065,45601.13496793926,8124.32266763719,59159.27847138387,50422.51800567126,-187500.02235174447,47188.80172834417,42282.482061682,67843.82526204888,55805.26510539831,12482.689318977516,70031.63636107878,-137455.96408319045,77195.05753458233,61541.70620938614,0.064,1.02,-0.032,192.0,0.0,0.0,0.0,0.0,0.0,0.0,0.0,0.0,0.0,1696030297.932468,0.0,2023-09-29 18:31:37.932
176.0,31540.636007861616,52073.10492671788,45592.082511434855,8117.237164644857,59156.84213123824,50397.48405188132,-187500.02235174447,47162.739594309285,42278.01171279093,67839.91370676919,55783.62861676558,12476.319071807751,70003.38375608728,-137347.3122533932,77194.1634648041,61569.55648297745,0.064,1.02,-0.032,192.0,0.0,0.0,0.0,0.0,0.0,0.0,0.0,0.0,0.0,1696030297.932478,0.0,2023-09-29 18:31:37.932
178.0,31537.10443223768,52072.27791217303,45600.129139438766,8118.667676289997,59152.84116898074,50413.62201137806,-187500.02235174447,47178.43051891691,42282.70557912655,67839.86900328028,55808.79668102225,12477.436659030516,70033.40214889076,-137451.40432732156,77209.6755754561,61547.94234608917,0.066,1.018,-0.032,192.0,1.0,8.0,15.5,104.0,127.5,0.0,0.0,0.0,0.0,1696030297.932481,0.0,2023-09-29 18:31:37.932
180.0,31545.754557341883,52079.29635993199,45584.058235175406,8118.734731523363,59150.49423581293,50403.00493276178,-187500.02235174447,47160.2809024192,42271.1273754987,67838.93023001317,55788.52364880129,12476.296720063296,70004.72486075459,-137301.8711569156,77214.50355225844,61588.019023897534,0.066,1.018,-0.032,192.0,0.0,0.0,0.0,0.0,0.0,0.0,0.0,0.0,0.0,1696030297.932485,0.0,2023-09-29 18:31:37.932
182.0,31547.20742073148,52079.676339587735,45604.398322629735,8118.779435012274,59156.50685507141,50425.84841559511,-187500.02235174447,47186.14187075399,42284.828994849806,67845.8592707943,55801.912343730015,12484.276292833842,70034.36327390233,-137479.47811835745,77191.14597930264,61526.30585745644,0.066,1.018,-0.032,192.0,0.0,0.0,0.0,0.0,0.0,0.0,0.0,0.0,0.0,1696030297.992432,0.0,2023-09-29 18:31:37.992
184.0,31546.805089331283,52076.72590931963,45604.30891565191,8111.828042486673,59166.65454705413,50404.569554873655,-187500.02235174447,47165.75707981075,42282.99615180447,67857.70569535562,55797.28553262777,12482.443449788503,70023.20975341914,-137330.54844505174,77214.97293889201,61574.56327373544,0.066,1.018,-0.032,192.0,0.0,0.0,0.0,0.0,0.0,0.0,0.0,0.0,0.0,1696030297.992443,0.0,2023-09-29 18:31:37.992
186.0,31539.786641572315,52068.90279876028,45624.82781706188,8101.523888292777,59179.28328267137,50414.18080498944,-187500.02235174447,47176.86589680504,42291.55686993085,67847.80387256193,55827.41568415352,12480.632958487626,70070.84132085339,-137468.81633625226,77253.82027075533,61539.38162796279,0.066,1.018,-0.032,192.0,0.0,0.0,0.0,0.0,0.0,0.0,0.0,0.0,0.0,1696030297.992447,0.0,2023-09-29 18:31:37.992
188.0,31542.33474044022,52071.38384239481,45591.50136607902,8096.070062645682,59165.738125531454,50396.47822338084,-187500.02235174447,47153.41891687142,42277.34116045728,67847.89327953974,55822.99003875137,12472.47457176144,70058.61491663635,-137288.12483407557,77316.06987906336,61607.33093110693,0.066,1.02,-0.032,192.0,1.0,8.0,15.5,112.0,127.5,0.0,0.0,0.0,0.0,1696030297.99245,0.0,2023-09-29 18:31:37.992
190.0,31538.87022004965,52074.15545870728,45603.63836331825,8094.08075738916,59163.88293074167,50410.11278749857,-187500.02235174447,47170.45094614637,42283.28672448239,67837.58912534584,55813.8258235247,12472.854551417178,70055.32921020141,-137458.95921694746,77281.51408213546,61546.33302048839,0.066,1.02,-0.032,192.0,0.0,0.0,0.0,0.0,0.0,0.0,0.0,0.0,0.0,1696030297.992454,0.0,2023-09-29 18:31:37.992
192.0,31539.160792727565,52076.05535698597,45578.06796766138,8092.158507366003,59148.50493055641,50396.81349954767,-187500.02235174447,47158.09043146258,42268.19929697506,67851.93894528615,55810.78598627877,12469.121810093142,70027.21071567664,-137265.3484064756,77316.11458255227,61616.18222191122,0.066,1.02,-0.032,192.0,0.0,0.0,0.0,0.0,0.0,0.0,0.0,0.0,0.0,1696030297.992457,0.0,2023-09-29 18:31:37.992
194.0,31549.934333555026,52086.2924559465,45592.95422946862,8101.680350503964,59159.14436091714,50413.55495614469,-187500.02235174447,47169.26630369024,42281.14095701468,67842.77473005948,55803.36520711961,12478.487191019916,70028.68593081068,-137405.40443723256,77267.41013138415,61563.58856720789,0.066,1.02,-0.032,192.0,0.0,0.0,0.0,0.0,0.0,0.0,0.0,0.0,0.0,1696030297.99246,0.0,2023-09-29 18:31:37.992
196.0,31557.66803713656,52092.30507520498,45578.82792697286,8107.98354244036,59156.171578904585,50413.89023231152,-187500.02235174447,47164.86301003254,42284.38195996069,67878.44811421014,55815.83748052568,12488.32195858025,70027.45658486565,-137262.35327271858,77278.07191348933,61617.545678323,0.066,1.02,-0.032,192.0,0.0,0.0,0.0,0.0,0.0,0.0,0.0,0.0,0.0,1696030298.05276,0.0,2023-09-29 18:31:38.052
198.0,31559.59028715972,52093.66853161676,45596.99989521503,8108.341170351645,59161.40188710712,50413.46554916687,-187500.02235174447,47167.25464668926,42291.40040771967,67863.49479716955,55804.70631178693,12488.880752191631,70026.24959066506,-137399.43652146298,77231.46852630003,61558.71588691663,0.062,1.02,-0.032,192.0,0.5,120.0,15.5,112.0,127.5,0.0,0.0,0.0,0.0,1696030298.052774,0.0,2023-09-29 18:31:38.052
200.0,31565.982886073936,52100.82108984245,45579.74434849553,8111.045731430738,59152.99763119193,50415.92424105695,-187500.02235174447,47171.0320915022,42296.56366068884,67885.91359685823,55820.84427128366,12491.384147570629,70030.58582908938,-137273.57384843516,77254.62493355572,61605.18516363921,0.062,1.02,-0.032,192.0,0.0,0.0,0.0,0.0,0.0,0.0,0.0,0.0,0.0,1696030298.052778,0.0,2023-09-29 18:31:38.052
202.0,31571.21319427648,52103.65976138828,45592.21662190159,8107.447100573433,59165.40284936463,50414.560784645175,-187500.02235174447,47170.383890913,42291.9815530755,67871.63083215128,55805.823899009694,12492.18881037102,70032.03869247898,-137369.95457052643,77218.95154940504,61560.43697123969,0.062,1.02,-0.032,192.0,0.0,0.0,0.0,0.0,0.0,0.0,0.0,0.0,0.0,1696030298.052781,0.0,2023-09-29 18:31:38.052
204.0,31571.52611869885,52104.777348611045,45584.12529040877,8102.596772026632,59154.24932888143,50413.77847358924,-187500.02235174447,47178.45287066136,42297.25656476696,67895.39073650727,55823.459425384935,12494.021653416356,70035.92789601421,-137277.73127290385,77242.39852933866,61600.42424207023,0.062,1.02,-0.032,192.0,0.0,0.0,0.0,0.0,0.0,0.0,0.0,0.0,0.0,1696030298.052784,0.0,2023-09-29 18:31:38.052
206.0,31579.34922925821,52110.96878182516,45584.50527006451,8103.513193549299,59160.99955570693,50408.10113049759,-187500.02235174447,47163.20898094284,42293.54617518737,67877.30817524293,55805.46627109841,12482.331691066229,70025.55668658695,-137307.74966570732,77228.74161347648,61580.844113927385,0.062,1.02,-0.032,192.0,0.0,0.0,0.0,0.0,0.0,0.0,0.0,0.0,0.0,1696030298.052787,0.0,2023-09-29 18:31:38.052
208.0,31593.94491838753,52127.15144481081,45585.80167124292,8108.385873840556,59157.75855276091,50417.69002886892,-187500.02235174447,47173.69194909238,42306.17491080462,67904.7784691785,55823.5264806183,12497.32971159574,70036.97842800361,-137269.66229315547,77237.32468334731,61592.26585534404,0.068,1.018,-0.032,192.0,1.0,16.0,15.5,104.0,127.5,0.0,0.0,0.0,0.0,1696030298.05279,0.0,2023-09-29 18:31:38.052
210.0,31602.796209191827,52135.7568664261,45588.55093581092,8109.369350596589,59162.58652956325,50411.81152007717,-187500.02235174447,47165.71237632184,42310.57820446232,67890.04866958245,55813.40114038005,12501.084804664231,70021.28750339599,-137306.34150580663,77206.1216480877,61565.5331689755,0.068,1.018,-0.032,192.0,0.0,0.0,0.0,0.0,0.0,0.0,0.0,0.0,0.0,1696030298.052794,0.0,2023-09-29 18:31:38.052
212.0,31603.89144467013,52140.78600892854,45589.93674396715,8110.039902930249,59153.44466608104,50425.11080802808,-187500.02235174447,47181.15743174046,42309.34885851728,67907.14775409077,55839.91030930404,12503.655255276592,70037.62662859281,-137304.17338659448,77219.59974999426,61586.02971864101,0.068,1.018,-0.032,192.0,0.0,0.0,0.0,0.0,0.0,0.0,0.0,0.0,0.0,1696030298.113234,0.0,2023-09-29 18:31:38.113
214.0,31613.078011641268,52149.83846543294,45589.33324686685,8109.861088974606,59163.01121270791,50412.16914798846,-187500.02235174447,47163.47720187631,42307.11368407175,67899.41405050922,55822.14067246207,12502.80588898729,70027.52364009901,-137277.3065897592,77208.8262091668,61589.226018098125,0.068,1.018,-0.032,192.0,0.0,0.0,0.0,0.0,0.0,0.0,0.0,0.0,0.0,1696030298.113245,0.0,2023-09-29 18:31:38.113
216.0,31616.02844190937,52156.1640091138,45595.88230799226,8115.851356488629,59163.27943364137,50429.87172959706,-187500.02235174447,47180.24101021779,42317.44019001009,67918.99417865208,55844.29125121728,12511.545421069315,70042.56636411743,-137311.6165174981,77221.45494478404,61584.42039304023,0.068,1.018,-0.032,192.0,0.0,0.0,0.0,0.0,0.0,0.0,0.0,0.0,0.0,1696030298.113248,0.0,2023-09-29 18:31:38.113
218.0,31619.425907066576,52160.18732311575,45583.72295900857,8110.978676197372,59165.11227668671,50416.28186896824,-187500.02235174447,47161.37613789751,42310.51114922895,67909.58409423639,55821.31365791723,12511.52306932486,70027.76950928802,-137248.27167371174,77220.94085466157,61596.31152109046,0.068,1.016,-0.036,192.0,1.0,16.0,15.5,96.0,127.0,112.0,0.0,0.0,0.0,1696030298.113252,0.0,2023-09-29 18:31:38.113
220.0,31628.411308337607,52172.10080291043,45587.07572067687,8112.878574476073,59162.966509219,50436.107866300095,-187500.02235174447,47180.15160323997,42315.42853300912,67926.41495781124,55838.30098370326,12513.8029472593,70048.64603860928,-137301.62528772658,77236.52002054692,61584.263930829045,0.068,1.016,-0.036,192.0,0.0,0.0,0.0,0.0,0.0,0.0,0.0,0.0,0.0,1696030298.113255,0.0,2023-09-29 18:31:38.113
222.0,31644.079881200774,52187.70232054023,45587.96979045508,8118.667676289997,59172.57775933478,50429.46939819687,-187500.02235174447,47167.25464668926,42324.525693002426,67928.71718749014,55824.912288774525,12523.972990986464,70032.9327622572,-137225.20467343388,77226.90877043114,61593.65166350027,0.068,1.016,-0.036,192.0,0.0,0.0,0.0,0.0,0.0,0.0,0.0,0.0,0.0,1696030298.113259,0.0,2023-09-29 18:31:38.113
224.0,31649.60076208124,52195.01134097712,45598.87744174927,8124.456778103921,59175.327023902784,50446.47907572736,-187500.02235174447,47191.17101325643,42336.66269024166,67942.32939986342,55855.66828914503,12526.901069510111,70060.78303584851,-137320.04312515774,77236.16239263564,61575.05501211346,0.068,1.016,-0.036,192.0,0.0,0.0,0.0,0.0,0.0,0.0,0.0,0.0,0.0,1696030298.113262,0.0,2023-09-29 18:31:38.113
226.0,31662.45301514304,52209.4729196397,45587.88038347726,8130.648211318042,59176.75753554792,50433.93974708793,-187500.02235174447,47176.82119331613,42338.04849839789,67954.01936221354,55843.57599539471,12536.24409869243,70047.05906475295,-137210.4748738378,77238.5316775479,61608.31440786296,0.068,1.016,-0.036,192.0,0.0,0.0,0.0,0.0,0.0,0.0,0.0,0.0,0.0,1696030298.172051,0.0,2023-09-29 18:31:38.172
228.0,31660.821337797803,52212.08807374097,45604.42067437419,8125.552013582232,59173.09184945725,50447.95429086141,-187500.02235174447,47192.95915281286,42348.53146654743,67961.1942721837,55864.51957994933,12541.00502026141,70062.97350680512,-137335.24231138735,77233.8825147012,61577.69251795919,0.064,1.018,-0.034,192.0,1.0,0.0,15.5,104.0,127.0,120.0,0.0,0.0,0.0,1696030298.172063,0.0,2023-09-29 18:31:38.172
230.0,31671.68428560308,52219.91118430033,45581.75600549651,8121.394589113544,59166.98982322095,50418.96407830287,-187500.02235174447,47159.52094310773,42339.65782399867,67962.31185940646,55845.49824541787,12533.606592846703,70041.47112863912,-137172.0745768636,77249.21581139753,61624.78764352651,0.064,1.018,-0.034,192.0,0.0,0.0,0.0,0.0,0.0,0.0,0.0,0.0,0.0,1696030298.172067,0.0,2023-09-29 18:31:38.172
232.0,31668.77855882389,52218.07834125499,45598.13983418224,8109.481109318866,59171.41546862311,50422.49565392681,-187500.02235174447,47169.22160020132,42350.20784738158,67956.88038550381,55854.99773681137,12536.758188814902,70061.65475388226,-137342.68544229097,77215.01764238092,61568.41654401023,0.064,1.018,-0.034,192.0,0.0,0.0,0.0,0.0,0.0,0.0,0.0,0.0,0.0,1696030298.17207,0.0,2023-09-29 18:31:38.172
234.0,31674.590012382272,52222.86161456843,45575.83279321585,8113.549126809732,59167.45920985451,50410.93980204342,-187500.02235174447,47152.591902326574,42343.81524846736,67971.00668799957,55848.62748964161,12534.277145180362,70044.80153856297,-137178.26601007773,77231.4238228111,61626.12874819384,0.064,1.018,-0.034,192.0,0.0,0.0,0.0,0.0,0.0,0.0,0.0,0.0,0.0,1696030298.172073,0.0,2023-09-29 18:31:38.172
236.0,31671.594878625263,52221.54286164557,45595.32351438088,8111.760987253308,59171.66133781211,50422.87563358255,-187500.02235174447,47166.71820482233,42352.13009740473,67960.3449058944,55850.996774553874,12536.62407834817,70054.90452705676,-137349.88270400558,77197.20330205004,61571.6351952118,0.064,1.018,-0.034,192.0,0.0,0.0,0.0,0.0,0.0,0.0,0.0,0.0,0.0,1696030298.172076,0.0,2023-09-29 18:31:38.172
238.0,31674.9252885491,52223.66627736882,45575.27399960447,8102.3732545820785,59156.864482982695,50409.35282818709,-187500.02235174447,47143.13711442198,42344.28463510092,67967.00572574207,55858.17168452402,12535.372380658671,70042.52166062852,-137174.04153037566,77233.36842457873,61635.38237039833,0.064,1.018,-0.034,192.0,1.0,0.0,15.5,104.0,127.0,120.0,0.0,0.0,0.0,1696030298.172079,0.0,2023-09-29 18:31:38.172
240.0,31677.47338741701,52225.11914075842,45591.8589939903,8100.495708047832,59171.95191049003,50414.58313638964,-187500.02235174447,47152.34603313757,42349.09026015881,67954.39934186928,55855.95886182295,12536.646430092624,70048.66839035373,-137311.4600552869,77211.5754737348,61592.936407677706,0.064,1.018,-0.034,192.0,0.0,0.0,0.0,0.0,0.0,0.0,0.0,0.0,0.0,1696030298.172082,0.0,2023-09-29 18:31:38.172
242.0,31682.010791541437,52229.03069603809,45576.8609734608,8101.4344813149555,59161.066610940296,50408.63757236452,-187500.02235174447,47140.81253299863,42347.100954902286,67971.67724033323,55866.59829218368,12542.18966271754,70049.09307349838,-137145.00661432822,77245.50542181796,61658.13644625383,0.064,1.018,-0.034,192.0,0.0,0.0,0.0,0.0,0.0,0.0,0.0,0.0,0.0,1696030298.232154,0.0,2023-09-29 18:31:38.232
244.0,31685.788236354383,52228.024867537606,45583.74531075303,8101.345074337134,59172.80127677933,50419.58992714762,-187500.02235174447,47148.52388483571,42352.95711194958,67953.0358854575,55851.10853327615,12537.898127782122,70046.79084381949,-137294.58448822313,77205.96518587651,61598.70315774717,0.064,1.018,-0.034,192.0,0.0,0.0,0.0,0.0,0.0,0.0,0.0,0.0,0.0,1696030298.232166,0.0,2023-09-29 18:31:38.232
246.0,31691.08559979029,52232.56227166204,45573.128232136754,8100.3168940921905,59168.24152091045,50415.25368872329,-187500.02235174447,47147.18278016839,42361.56253356487,67979.05331600348,55868.49819046238,12541.139130728145,70051.7305793441,-137171.80635593014,77233.50253504545,61643.51840538006,0.064,1.018,-0.034,192.0,0.0,0.0,0.0,0.0,0.0,0.0,0.0,0.0,0.0,1696030298.23217,0.0,2023-09-29 18:31:38.232
248.0,31682.524881663907,52224.582698891485,45590.02615094497,8097.03118765726,59172.19777967904,50412.9514590444,-187500.02235174447,47144.83584700058,42362.501306832,67956.6345163148,55859.84806535817,12535.551194614316,70050.70239909916,-137278.4912322153,77206.34516553226,61600.13366939232,0.062,1.022,-0.032,192.0,0.5,120.0,15.5,120.0,127.5,0.0,0.0,0.0,0.0,1696030298.232173,0.0,2023-09-29 18:31:38.232
250.0,31691.309117234843,52235.49035018568,45571.38479606925,8109.011722685304,59166.31927088729,50424.86493883908,-187500.02235174447,47149.64147205847,42355.25934162847,67978.40511541428,55880.8363534017,12538.613383604692,70053.40696017825,-137127.4157914419,77253.84262249978,61652.43675141773,0.062,1.022,-0.032,192.0,0.0,0.0,0.0,0.0,0.0,0.0,0.0,0.0,0.0,1696030298.232177,0.0,2023-09-29 18:31:38.232
252.0,31692.27024224642,52239.93834733228,45585.80167124292,8109.324647107679,59177.361032648216,50429.84937785261,-187500.02235174447,47153.374213382514,42366.12228943376,67964.88231001882,55860.5856729252,12544.62600286317,70050.81415782144,-137243.8907317985,77204.71348818702,61589.360128564855,0.062,1.022,-0.032,192.0,0.0,0.0,0.0,0.0,0.0,0.0,0.0,0.0,0.0,1696030298.23218,0.0,2023-09-29 18:31:38.232
254.0,31691.89026259068,52240.81006536605,45575.92220019367,8106.933010450961,59163.8158755083,50432.21866276487,-187500.02235174447,47155.6317395725,42358.5450480634,67984.61890037285,55880.1434493236,12545.318906941284,70059.86661432585,-137160.13874532448,77238.39756708116,61633.9965622421,0.062,1.022,-0.032,192.0,0.0,0.0,0.0,0.0,0.0,0.0,0.0,0.0,0.0,1696030298.232183,0.0,2023-09-29 18:31:38.232
0.0,31694.10308529176,52242.486446200186,45585.98048519856,8104.139042394047,59176.55636984782,50432.822159865165,-187500.02235174447,47144.81349525613,42357.11453641827,67968.30212692048,55856.33884147869,12544.357781929706,70048.7354455871,-137218.00741171927,77210.77081093441,61609.61080904136,0.062,1.022,-0.032,192.0,0.0,0.0,0.0,0.0,0.0,0.0,0.0,0.0,0.0,1696030298.292534,0.0,2023-09-29 18:31:38.292
2.0,31697.008812070944,52246.5321119466,45582.851240974815,8106.307161606212,59167.481561598965,50438.99124133483,-187500.02235174447,47151.09433544807,42359.5955800528,67988.28458646353,55884.546742981285,12551.44328492204,70061.7441608601,-137170.9346378964,77241.05742467135,61645.1500827253,0.062,1.022,-0.028,192.0,0.5,120.0,15.5,120.0,127.5,16.0,0.0,0.0,0.0,1696030298.292546,0.0,2023-09-29 18:31:38.292
4.0,31708.89994012117,52256.74685916268,45580.70547350711,8115.180804154969,59176.0646314698,50432.64334590952,-187500.02235174447,47143.33828012208,42360.37789110874,67974.15828396777,55870.26397827435,12556.830055335768,70049.56246013194,-137183.89864968046,77214.10122085825,61614.77406201054,0.062,1.022,-0.028,192.0,0.0,0.0,0.0,0.0,0.0,0.0,0.0,0.0,0.0,1696030298.292549,0.0,2023-09-29 18:31:38.292
6.0,31712.476219234017,52261.8877603874,45587.90273522172,8117.393626856045,59172.93538724606,50446.36731700508,-187500.02235174447,47162.33726290909,42365.67525454465,67997.47115343466,55900.48353677792,12563.066192038796,70064.62753589482,-137203.79170224568,77223.42189829612,61613.63412304332,0.062,1.022,-0.028,192.0,0.0,0.0,0.0,0.0,0.0,0.0,0.0,0.0,0.0,1696030298.292552,0.0,2023-09-29 18:31:38.292
8.0,31715.31489077984,52262.401850509865,45591.031979445455,8121.059312946715,59178.14334370415,50435.9067006,-187500.02235174447,47150.915521492425,42365.80936501138,67990.36329869786,55880.45637374597,12566.06132579581,70049.40599792075,-137185.12799562552,77211.08373535678,61611.64481778679,0.062,1.022,-0.028,192.0,0.0,0.0,0.0,0.0,0.0,0.0,0.0,0.0,0.0,1696030298.292555,0.0,2023-09-29 18:31:38.292
10.0,31713.90673087916,52262.04422259858,45606.09705520834,8123.98739147036,59176.89164601465,50453.67633744197,-187500.02235174447,47171.90380953596,42369.92208599116,68002.09796453691,55907.412577559066,12568.184741519064,70067.71207662966,-137208.66438253695,77237.50349730295,61614.461137588165,0.062,1.022,-0.028,192.0,0.0,0.0,0.0,0.0,0.0,0.0,0.0,0.0,0.0,1696030298.292558,0.0,2023-09-29 18:31:38.292
12.0,31718.779411170413,52264.48056274421,45596.97754347057,8133.598641586143,59175.8187622808,50444.08743907064,-187500.02235174447,47154.87178026102,42368.73744353503,67990.6985748647,55878.24355104489,12568.542369430348,70049.56246013194,-137142.6149776715,77223.46660178502,61617.590381811904,0.064,1.024,-0.032,192.0,1.0,0.0,16.0,0.0,127.5,0.0,0.0,0.0,0.0,1696030298.292562,0.0,2023-09-29 18:31:38.292
14.0,31710.196341299576,52260.837228398,45616.42356114669,8139.566557355709,59175.50583785842,50456.47030549888,-187500.02235174447,47185.15839399796,42376.11351920528,68001.62857790335,55897.10842336517,12572.610386921217,70066.81800685143,-137235.30766192768,77217.31987205982,61591.41648905474,0.064,1.024,-0.032,192.0,0.0,0.0,0.0,0.0,0.0,0.0,0.0,0.0,0.0,1696030298.292565,0.0,2023-09-29 18:31:38.292
16.0,31714.733745424004,52265.709908689256,45599.97267722758,8151.547092383754,59172.242483167945,50449.27304378427,-187500.02235174447,47173.37902467001,42365.83171675584,67998.94636856871,55876.14248706609,12567.715354885502,70047.70726534215,-137123.90656756243,77220.27030232792,61624.92175399325,0.064,1.024,-0.032,192.0,0.0,0.0,0.0,0.0,0.0,0.0,0.0,0.0,0.0,1696030298.352809,0.0,2023-09-29 18:31:38.352
18.0,31707.96116685405,52258.51264697465,45626.21362521811,8153.402287173544,59173.58358783527,50461.54415149024,-187500.02235174447,47196.222507503335,42374.01245522648,68008.64702566231,55893.77801344133,12572.163352032108,70063.4875969276,-137259.93928431743,77203.43943875306,61591.125916376826,0.064,1.024,-0.032,192.0,0.0,0.0,0.0,0.0,0.0,0.0,0.0,0.0,0.0,1696030298.35282,0.0,2023-09-29 18:31:38.352
20.0,31712.74444016748,52262.558312721056,45617.22822394708,8164.086421023181,59163.25708189692,50441.47228496936,-187500.02235174447,47172.90963803645,42365.11646093327,68001.94150232572,55875.27076903234,12562.417991449594,70044.89094554078,-137105.33226792005,77233.39077632318,61643.67486759125,0.064,1.024,-0.032,192.0,0.0,0.0,0.0,0.0,0.0,0.0,0.0,0.0,0.0,1696030298.352823,0.0,2023-09-29 18:31:38.352
22.0,31714.733745424004,52267.05101335657,45646.08432603888,8176.3351769846895,59171.34841338974,50467.55677074871,-187500.02235174447,47204.06796980715,42380.96384775208,68009.33992974042,55881.59631271319,12572.833904365769,70062.6382306383,-137248.51754290075,77220.98555815048,61601.40771882627,0.066,1.024,-0.03,192.0,1.0,8.0,16.0,0.0,127.5,8.0,0.0,0.0,0.0,1696030298.352827,0.0,2023-09-29 18:31:38.352
24.0,31721.37221352723,52270.24731281368,45643.80444810444,8188.71804341293,59167.50391334343,50452.37993626356,-187500.02235174447,47188.71232136635,42376.80642328339,68010.97160708567,55871.80624864176,12579.472372468994,70053.25049796706,-137112.0154395122,77234.88834320169,61642.04319024601,0.066,1.024,-0.03,192.0,0.0,0.0,0.0,0.0,0.0,0.0,0.0,0.0,0.0,1696030298.35283,0.0,2023-09-29 18:31:38.352
26.0,31719.3382047818,52269.465001757744,45669.687768183685,8191.869639381128,59172.06366921231,50466.68505271495,-187500.02235174447,47206.88428960852,42379.01924598447,67993.78311559954,55878.467068489445,12581.864009125711,70066.81800685143,-137282.71571191738,77209.0273748669,61587.28141633051,0.066,1.024,-0.03,192.0,0.0,0.0,0.0,0.0,0.0,0.0,0.0,0.0,0.0,1696030298.352833,0.0,2023-09-29 18:31:38.352
28.0,31718.10885883676,52269.10737384646,45657.37195698881,8198.753976673363,59168.08505869926,50457.34202353264,-187500.02235174447,47201.452815705874,42374.14656569321,68006.21068551668,55869.101687562674,12586.379061505684,70055.7315416016,-137131.4614571883,77233.32372108981,61639.94212626721,0.066,1.024,-0.03,192.0,0.0,0.0,0.0,0.0,0.0,0.0,0.0,0.0,0.0,1696030298.352836,0.0,2023-09-29 18:31:38.352
30.0,31724.344995539785,52276.6399117279,45686.406873036256,8208.834613422707,59180.37851814968,50470.32838706117,-187500.02235174447,47224.34100202811,42382.39435939722,67997.56056041247,55858.37285022412,12592.101108086244,70061.52064341553,-137298.47369175838,77204.66878469811,61586.16382910775,0.066,1.024,-0.03,192.0,0.0,0.0,0.0,0.0,0.0,0.0,0.0,0.0,0.0,1696030298.413247,0.0,2023-09-29 18:31:38.413
32.0,31731.31873980984,52284.41831879834,45672.213515307136,8213.126148358126,59177.13751520366,50459.39838402253,-187500.02235174447,47210.72878965483,42380.04742622941,68019.37586300085,55866.35242299467,12591.989349363965,70058.5925648919,-137136.69176539086,77243.31495086133,61643.42899840224,0.064,1.018,-0.036,192.0,1.0,0.0,15.5,104.0,127.0,112.0,0.0,0.0,0.0,1696030298.413258,0.0,2023-09-29 18:31:38.413
34.0,31730.2905595649,52283.43484204231,45703.930640689214,8214.064921625248,59190.347396176745,50466.372128292576,-187500.02235174447,47221.92701362694,42391.849147301815,68008.15528728429,55867.87234161763,12596.72791918849,70065.40984695076,-137316.01981115577,77204.35586027574,61585.09094537389,0.064,1.018,-0.036,192.0,0.0,0.0,0.0,0.0,0.0,0.0,0.0,0.0,0.0,1696030298.413262,0.0,2023-09-29 18:31:38.413
36.0,31726.647225218683,52278.89743791788,45680.90834390025,8215.070750125737,59173.42712562408,50451.44116299643,-187500.02235174447,47205.140853541,42385.12127222077,68024.44970899221,55882.35627202467,12595.789145921368,70071.51187318706,-137144.60428292802,77258.87176500223,61648.05580950449,0.064,1.018,-0.036,192.0,0.0,0.0,0.0,0.0,0.0,0.0,0.0,0.0,0.0,1696030298.413265,0.0,2023-09-29 18:31:38.413
38.0,31721.014585615947,52273.62242622643,45696.86748944133,8215.71895071494,59182.747803061946,50461.6112067236,-187500.02235174447,47208.85124312058,42382.41671114168,68000.30982498048,55860.11628629164,12591.83288715278,70069.54491967498,-137287.163709064,77229.21100011004,61584.21922734013,0.064,1.018,-0.036,192.0,0.0,0.0,0.0,0.0,0.0,0.0,0.0,0.0,0.0,1696030298.413268,0.0,2023-09-29 18:31:38.413
40.0,31725.12730659572,52275.83524892751,45683.54584974598,8224.682000241519,59178.21039893752,50463.444049768936,-187500.02235174447,47208.471263464846,42379.8015570404,68016.4030809883,55874.71197542096,12592.749308675446,70068.78496036351,-137158.1270883235,77264.30323890487,61635.15885295378,0.064,1.018,-0.036,192.0,0.0,0.0,0.0,0.0,0.0,0.0,0.0,0.0,0.0,1696030298.413271,0.0,2023-09-29 18:31:38.413
42.0,31718.57824547032,52268.705042446265,45698.94620167568,8221.329238573222,59182.88191352868,50465.32159630318,-187500.02235174447,47206.75017914178,42386.08239723234,67992.08438302093,55860.11628629164,12590.447078996547,70059.77720734802,-137299.59127898113,77217.09635461526,61585.26975932953,0.066,1.02,-0.032,192.0,1.0,8.0,15.5,112.0,127.5,0.0,0.0,0.0,0.0,1696030298.413274,0.0,2023-09-29 18:31:38.413
44.0,31713.079716334312,52264.68172844431,45685.26693406903,8215.786005948306,59170.45434361153,50460.78419217876,-187500.02235174447,47203.95621108487,42376.873478516754,68006.23303726113,55876.96950161094,12585.864971383213,70061.96767830465,-137182.1328618685,77265.57728833883,61637.70695182168,0.066,1.02,-0.032,192.0,0.0,0.0,0.0,0.0,0.0,0.0,0.0,0.0,0.0,1696030298.413278,0.0,2023-09-29 18:31:38.413
46.0,31706.530655208902,52257.6856324298,45693.5370795175,8209.035779122803,59172.95773899052,50448.28956702824,-187500.02235174447,47195.41784470294,42374.86182151578,67981.40024917129,55845.74411460688,12578.690061413055,70045.785015319,-137267.33771173214,77232.78727922289,61593.29403558899,0.066,1.02,-0.032,192.0,0.0,0.0,0.0,0.0,0.0,0.0,0.0,0.0,0.0,1696030298.472946,0.0,2023-09-29 18:31:38.472
48.0,31709.190512799087,52260.70311793126,45690.67605622722,8217.954125160471,59165.60401506472,50455.956215376405,-187500.02235174447,47199.307048238166,42370.05619645789,67999.77338311356,55868.11821080664,12574.689099155556,70056.89383231329,-137182.60224850205,77267.81246278435,61633.281306419536,0.066,1.02,-0.032,192.0,0.0,0.0,0.0,0.0,0.0,0.0,0.0,0.0,0.0,1696030298.47296,0.0,2023-09-29 18:31:38.472
50.0,31710.978652355512,52261.15015282037,45701.49430054359,8223.3408955742,59178.545675104346,50451.26234904079,-187500.02235174447,47196.35661797007,42371.95609473659,67977.98043226963,55845.118265762125,12577.10308755673,70050.0318467655,-137239.97917651883,77233.83781121229,61599.10548914737,0.066,1.02,-0.032,192.0,0.0,0.0,0.0,0.0,0.0,0.0,0.0,0.0,0.0,1696030298.472963,0.0,2023-09-29 18:31:38.472
52.0,31708.832884887805,52261.574835965024,45705.62937326782,8220.122244372636,59175.01409948041,50459.13016308906,-187500.02235174447,47213.00866758927,42379.399225640205,67998.4546301907,55873.88496087611,12583.048651581845,70069.99195456409,-137216.21927216282,77263.56563133784,61624.51942259305,0.064,1.018,-0.034,192.0,1.0,0.0,15.5,104.0,127.0,120.0,0.0,0.0,0.0,1696030298.472967,0.0,2023-09-29 18:31:38.472
54.0,31711.1351145667,52262.759478421154,45696.59926850788,8222.849157196184,59180.78084954988,50451.84349439663,-187500.02235174447,47195.39549295849,42365.8987719892,67982.33902243842,55840.87143431562,12575.225541022486,70049.65186710976,-137205.15515865746,77249.19345965308,61615.35520736637,0.064,1.018,-0.034,192.0,0.0,0.0,0.0,0.0,0.0,0.0,0.0,0.0,0.0,1696030298.47297,0.0,2023-09-29 18:31:38.472
56.0,31711.671556433623,52262.3347952765,45704.82471046742,8224.994924663893,59178.23275068197,50458.57136947768,-187500.02235174447,47208.80653963168,42375.39826338271,68001.27094999206,55860.04923105827,12579.96411084701,70064.91810857273,-137232.91602527094,77253.61910505523,61617.120995178346,0.064,1.018,-0.034,192.0,0.0,0.0,0.0,0.0,0.0,0.0,0.0,0.0,0.0,1696030298.472973,0.0,2023-09-29 18:31:38.472
58.0,31720.768716426937,52266.80514416756,45701.38254182131,8231.29811660029,59189.028643253885,50448.17780830596,-187500.02235174447,47197.07187379264,42379.823908784856,67993.2019702437,55832.5789371227,12584.59092194926,70050.90356479926,-137219.77319953122,77228.4286890541,61606.25804737306,0.064,1.018,-0.034,192.0,0.0,0.0,0.0,0.0,0.0,0.0,0.0,0.0,0.0,1696030298.472976,0.0,2023-09-29 18:31:38.472
60.0,31710.06223083285,52256.79156265158,45711.15025414828,8223.698523485486,59181.89843677264,50453.47517174187,-187500.02235174447,47214.617993190055,42382.57317335286,67998.11935402386,55855.57888216721,12578.8688753687,70068.13675977431,-137287.78955790872,77230.75327047745,61596.98207342412,0.064,1.018,-0.034,192.0,0.0,0.0,0.0,0.0,0.0,0.0,0.0,0.0,0.0,1696030298.472979,0.0,2023-09-29 18:31:38.472
62.0,31705.010736585944,52248.4320102253,45695.74990221857,8217.395331549089,59167.68272729906,50429.044715052216,-187500.02235174447,47188.75702485527,42375.487670360526,67980.75204858209,55831.349591177655,12564.094372283742,70044.71213158514,-137187.98901891577,77242.1303084052,61619.53498357952,0.062,1.02,-0.036,192.0,0.5,120.0,15.5,112.0,127.0,112.0,0.0,0.0,0.0,1696030298.533205,0.0,2023-09-29 18:31:38.533
64.0,31702.12736155121,52247.82851312501,45704.69060000069,8216.545965259787,59171.99661397894,50445.56265420469,-187500.02235174447,47206.9960483308,42378.706321562095,67981.06497300447,55839.55268139276,12562.842674594243,70059.2407654811,-137265.52722043125,77243.65022702816,61591.751765221576,0.062,1.02,-0.036,192.0,0.0,0.0,0.0,0.0,0.0,0.0,0.0,0.0,0.0,1696030298.533216,0.0,2023-09-29 18:31:38.533
66.0,31707.44707673157,52253.90818761685,45682.56237298994,8218.579974005219,59175.08115471377,50431.92809008695,-187500.02235174447,47185.247800975776,42372.35842613679,67979.20977821467,55817.26799217081,12560.741610615449,70041.76170131704,-137156.85303888953,77245.37131135122,61608.91790496325,0.062,1.02,-0.036,192.0,0.0,0.0,0.0,0.0,0.0,0.0,0.0,0.0,0.0,1696030298.533219,0.0,2023-09-29 18:31:38.533
68.0,31694.50541669195,52242.285280500095,45700.57787902092,8217.685904227008,59176.10933495872,50448.02134609477,-187500.02235174447,47204.470301207344,42381.32147566336,67987.56933064095,55836.91517554703,12564.988442061956,70058.77137884752,-137294.53978473422,77227.28875008688,61566.94132887618,0.062,1.02,-0.036,192.0,0.0,0.0,0.0,0.0,0.0,0.0,0.0,0.0,0.0,1696030298.533222,0.0,2023-09-29 18:31:38.533
70.0,31709.52578896592,52256.36687950693,45667.98903560508,8229.554680532776,59174.5670645913,50441.002898335806,-187500.02235174447,47191.48393767881,42370.86085925828,67981.48965614912,55829.13676847658,12559.57931990377,70041.51583212803,-137141.6762044044,77249.88636373119,61617.94800972319,0.062,1.02,-0.036,192.0,0.0,0.0,0.0,0.0,0.0,0.0,0.0,0.0,0.0,1696030298.533226,0.0,2023-09-29 18:31:38.533
72.0,31706.441248231084,52256.99272835168,45694.98994290709,8227.833596209717,59181.94314026155,50454.39159326453,-187500.02235174447,47213.74627515629,42384.33896116483,67989.35747019738,55842.10078026066,12571.604558420726,70052.9822770336,-137329.60967178462,77212.38013653518,61559.47584622811,0.064,1.02,-0.034,192.0,1.0,0.0,15.5,112.0,127.0,120.0,0.0,0.0,0.0,1696030298.533229,0.0,2023-09-29 18:31:38.533
74.0,31712.297405278376,52260.70311793126,45669.01721585003,8227.699485742985,59176.33285240327,50436.9572325894,-187500.02235174447,47192.15449001247,42379.73450180704,67994.65483363329,55837.85394881416,12573.795029377348,70048.31076244244,-137167.15719308343,77244.14196540618,61613.67882653223,0.064,1.02,-0.034,192.0,0.0,0.0,0.0,0.0,0.0,0.0,0.0,0.0,0.0,1696030298.533232,0.0,2023-09-29 18:31:38.533
76.0,31707.24591103148,52255.584568451,45690.8325184384,8219.205822849968,59182.524285617386,50441.51698845828,-187500.02235174447,47207.30897275317,42384.80834779839,67991.03385103153,55838.65861161454,12576.38783173416,70055.6868381127,-137334.88468347606,77214.41414528062,61560.213453795135,0.064,1.02,-0.034,192.0,0.0,0.0,0.0,0.0,0.0,0.0,0.0,0.0,0.0,1696030298.594067,0.0,2023-09-29 18:31:38.594
78.0,31715.51605647994,52260.25608304216,45666.46911698212,8220.971610661938,59178.38921289316,50436.48784595583,-187500.02235174447,47191.21571674535,42379.01924598447,68000.71215638067,55838.21157672544,12573.750325888435,70046.52262288603,-137166.01725411622,77247.80765149686,61611.15307940878,0.064,1.02,-0.034,192.0,0.0,0.0,0.0,0.0,0.0,0.0,0.0,0.0,0.0,1696030298.594079,0.0,2023-09-29 18:31:38.594
80.0,31712.498570978478,52257.171542307326,45695.32521907392,8219.585802505708,59188.91688453161,50452.9610816194,-187500.02235174447,47214.14860655649,42388.96577226708,67991.57029289845,55837.49632090287,12576.72310790099,70058.72667535862,-137343.7136225359,77214.03416562488,61549.864596112326,0.064,1.02,-0.034,192.0,0.0,0.0,0.0,0.0,0.0,0.0,0.0,0.0,0.0,1696030298.594083,0.0,2023-09-29 18:31:38.594
82.0,31716.119553580236,52260.1890278088,45681.10950960035,8221.4409972955,59181.20553269453,50442.16518904748,-187500.02235174447,47201.899850594986,42384.003684998,68006.65772040578,55845.408838440046,12574.733802644469,70066.01334405105,-137171.89576290795,77261.77749178142,61611.91303872026,0.062,1.02,-0.038,192.0,0.5,120.0,15.5,112.0,127.0,104.0,0.0,0.0,0.0,1696030298.594086,0.0,2023-09-29 18:31:38.594
84.0,31708.09527732078,52253.23763528319,45699.61675400934,8215.808357692762,59196.38236717968,50447.59666295012,-187500.02235174447,47209.3429814986,42388.697551333615,67994.20779874419,55832.333067933694,12577.14779104564,70063.0852655274,-137339.9138259785,77221.74551746197,61551.049238568456,0.062,1.02,-0.038,192.0,0.0,0.0,0.0,0.0,0.0,0.0,0.0,0.0,0.0,1696030298.594089,0.0,2023-09-29 18:31:38.594
86.0,31708.20703604305,52253.170580049824,45676.66151245374,8213.640238480597,59181.02671873888,50443.68510767044,-187500.02235174447,47196.40132145898,42379.756853551495,68002.34383372591,55851.935547821,12565.122552528686,70070.28252724202,-137173.70625420884,77274.60739309876,61615.35520736637,0.062,1.02,-0.038,192.0,0.0,0.0,0.0,0.0,0.0,0.0,0.0,0.0,0.0,1696030298.594092,0.0,2023-09-29 18:31:38.594
88.0,31716.07485009132,52259.473771986224,45678.89668689927,8220.457520539465,59189.94506477656,50451.01647985178,-187500.02235174447,47194.92610632493,42382.5061181195,67987.90460680779,55832.89186154508,12565.882511840167,70060.55951840396,-137312.5105872763,77230.23918035498,61552.90443335825,0.062,1.02,-0.038,192.0,0.0,0.0,0.0,0.0,0.0,0.0,0.0,0.0,0.0,1696030298.594096,0.0,2023-09-29 18:31:38.594
90.0,31710.263396532944,52255.495161473176,45675.92390488672,8218.065883882748,59176.176390192086,50440.26529076878,-187500.02235174447,47195.4401964474,42387.11057747729,68005.38367097183,55857.00939381235,12574.264416010908,70067.51091092956,-137212.66534479446,77252.47916608801,61589.58364600941,0.062,1.02,-0.038,192.0,0.0,0.0,0.0,0.0,0.0,0.0,0.0,0.0,0.0,1696030298.594099,0.0,2023-09-29 18:31:38.594
92.0,31712.05153608937,52256.70215567377,45685.37869279131,8223.407950807567,59183.19483795105,50434.49854069932,-187500.02235174447,47196.91541158145,42380.807385540895,67982.96487128317,55835.57407087971,12568.162389774609,70060.42540793722,-137300.0606656147,77225.85823844174,61557.3300787604,0.062,1.022,-0.034,192.0,0.5,120.0,15.5,120.0,127.0,120.0,0.0,0.0,0.0,1696030298.653864,0.0,2023-09-29 18:31:38.653
94.0,31713.258530289957,52259.116144074935,45679.94721888867,8227.543023531798,59179.4173931381,50448.5577879617,-187500.02235174447,47205.7443506413,42388.25051644451,68002.5002959371,55863.22317877093,12578.824171879787,70074.95404183317,-137212.888862239,77257.26243940144,61603.95581769417,0.062,1.022,-0.034,192.0,0.0,0.0,0.0,0.0,0.0,0.0,0.0,0.0,0.0,1696030298.653874,0.0,2023-09-29 18:31:38.653
96.0,31715.001966357468,52262.35714702096,45687.859736425846,8227.855947954173,59196.04709101285,50450.56944496268,-187500.02235174447,47203.0397895622,42388.04935074441,67979.58975787042,55840.75967559334,12580.20998003602,70056.96088754665,-137296.4620347574,77227.7804884649,61565.60022420887,0.062,1.022,-0.034,192.0,0.0,0.0,0.0,0.0,0.0,0.0,0.0,0.0,0.0,1696030298.653877,0.0,2023-09-29 18:31:38.653
98.0,31716.52188498043,52266.7380889342,45691.45836728315,8230.895785200093,59189.54273337636,50459.80071542272,-187500.02235174447,47211.466397221855,42386.55178386591,67992.95610105469,55872.20858004196,12581.528732958885,70069.32140223043,-137239.21921720734,77261.37516038123,61601.36301533735,0.062,1.022,-0.034,192.0,0.0,0.0,0.0,0.0,0.0,0.0,0.0,0.0,0.0,1696030298.65388,0.0,2023-09-29 18:31:38.653
100.0,31721.21575131604,52269.97909188022,45692.7324167171,8236.05903816927,59194.23659971197,50453.56457871969,-187500.02235174447,47203.86680410705,42384.54012686493,67982.58489162743,55850.437980942486,12587.876628384189,70052.04350376649,-137280.52524096076,77234.01662516793,61573.28922430149,0.062,1.022,-0.034,192.0,0.0,0.0,0.0,0.0,0.0,0.0,0.0,0.0,0.0,1696030298.653884,0.0,2023-09-29 18:31:38.653
102.0,31717.617120458737,52265.79931566707,45699.125015631325,8233.734456745919,59187.32991067528,50461.70061370142,-187500.02235174447,47211.756969899776,42388.58579261134,68004.44489770471,55876.34365276619,12584.456811482529,70074.86463485534,-137265.7954413647,77261.01753246994,61594.94806467868,0.062,1.024,-0.034,192.0,0.5,120.0,16.0,0.0,127.0,120.0,0.0,0.0,0.0,1696030298.653887,0.0,2023-09-29 18:31:38.653
104.0,31718.041803603388,52261.0383940981,45680.61777122233,8222.893860685093,59188.73807057597,50439.43827622393,-187500.02235174447,47187.706492865866,42389.47986238955,67987.56933064095,55845.2300244844,12579.181799791077,70059.6878003702,-137260.87805758454,77239.31398860384,61582.1852185947,0.062,1.024,-0.034,192.0,0.0,0.0,0.0,0.0,0.0,0.0,0.0,0.0,0.0,1696030298.65389,0.0,2023-09-29 18:31:38.653
106.0,31713.2361785455,52256.05395508456,45681.06480611143,8219.027008894325,59182.54663736185,50442.92514835896,-187500.02235174447,47204.4926529518,42393.65963860269,67993.60430164389,55866.15125729457,12575.113782300208,70078.55267269048,-137296.7079039464,77245.79599449587,61575.32323304692,0.062,1.024,-0.034,192.0,0.0,0.0,0.0,0.0,0.0,0.0,0.0,0.0,0.0,1696030298.71317,0.0,2023-09-29 18:31:38.713
108.0,31718.645300703683,52257.55152196307,45670.91711412872,8216.590668748697,59180.356166405225,50433.38095347655,-187500.02235174447,47187.05829227666,42392.11736823528,67981.51200789357,55843.68775411699,12576.566645689803,70057.89966081377,-137256.54181916022,77231.35676757774,61577.29018655899,0.062,1.024,-0.034,192.0,0.0,0.0,0.0,0.0,0.0,0.0,0.0,0.0,0.0,1696030298.713181,0.0,2023-09-29 18:31:38.713
110.0,31712.74444016748,52253.2823387721,45680.39425377778,8212.746168702384,59182.1219542172,50448.44602923942,-187500.02235174447,47207.89011810901,42393.30201069141,67989.37982194184,55859.602196169166,12571.649261909635,70075.19991102218,-137318.1655786235,77241.39270083817,61575.97143363613,0.062,1.024,-0.034,192.0,0.0,0.0,0.0,0.0,0.0,0.0,0.0,0.0,0.0,1696030298.713185,0.0,2023-09-29 18:31:38.713
112.0,31708.31879476533,52248.38730673639,45655.53911394347,8207.068825610737,59177.87512277069,50422.76387486028,-187500.02235174447,47182.43148117441,42382.41671114168,67975.58879561292,55835.28349820179,12562.596805405236,70057.94436430269,-137222.25424316578,77249.66284628664,61602.54765779348,0.064,1.02,-0.036,192.0,1.0,0.0,15.5,112.0,127.0,112.0,0.0,0.0,0.0,1696030298.713188,0.0,2023-09-29 18:31:38.713
114.0,31708.810533143347,52252.47767597171,45676.41564326473,8208.409930278056,59185.00532925193,50446.99316584983,-187500.02235174447,47206.05727506367,42389.88219378975,67983.63542361683,55851.399105954064,12568.29650024134,70077.07745755643,-137329.72143050688,77240.92331420461,61577.15607609226,0.064,1.02,-0.036,192.0,0.0,0.0,0.0,0.0,0.0,0.0,0.0,0.0,0.0,1696030298.713191,0.0,2023-09-29 18:31:38.713
116.0,31718.444135003585,52260.79252490909,45658.13191630029,8213.975514647427,59180.40086989413,50432.531587187244,-187500.02235174447,47181.31389395164,42390.32922867885,67982.67429860524,55839.23975697038,12570.285805497862,70062.41471319375,-137204.10462666806,77251.62979979871,61610.884858475314,0.064,1.02,-0.036,192.0,0.0,0.0,0.0,0.0,0.0,0.0,0.0,0.0,0.0,1696030298.713195,0.0,2023-09-29 18:31:38.713
118.0,31710.37515525522,52254.46698122824,45684.68578871319,8205.86183141015,59180.13264896067,50449.13893331754,-187500.02235174447,47196.513080181256,42396.811234570894,67986.049412018,55859.84806535817,12574.845561366745,70072.49534994308,-137336.3151951212,77235.53654379089,61573.46803825713,0.064,1.02,-0.036,192.0,0.0,0.0,0.0,0.0,0.0,0.0,0.0,0.0,0.0,1696030298.713198,0.0,2023-09-29 18:31:38.713
120.0,31711.06805933333,52254.15405680586,45658.422488978205,8204.788947676296,59175.05880296932,50437.76189538978,-187500.02235174447,47178.13994623899,42385.99299025453,67989.2010079862,55842.03372502729,12569.10116304173,70063.46524518315,-137173.30392280864,77261.95630573705,61622.37365512535,0.064,1.02,-0.036,192.0,0.0,0.0,0.0,0.0,0.0,0.0,0.0,0.0,0.0,1696030298.713201,0.0,2023-09-29 18:31:38.713
122.0,31711.492742477985,52252.72354516072,45680.90834390025,8203.313732542245,59191.17441072159,50458.50431424431,-187500.02235174447,47204.24678376279,42396.6547723597,67987.85990331888,55842.816036083226,12571.045764809343,70075.40107672228,-137337.63394804407,77229.7250902325,61562.78390440749,0.06,1.022,-0.04,192.0,0.5,112.0,15.5,120.0,127.0,96.0,0.0,0.0,0.0,1696030298.773042,0.0,2023-09-29 18:31:38.773
124.0,31717.684175692106,52254.779905650605,45660.65766342374,8206.867659910638,59184.558294362825,50441.04760182472,-187500.02235174447,47183.66082711945,42393.52552813597,67993.58194989944,55842.54781514977,12568.967052575,70067.01917255153,-137181.2834955792,77260.8834220032,61615.645780044295,0.06,1.022,-0.04,192.0,0.0,0.0,0.0,0.0,0.0,0.0,0.0,0.0,0.0,1696030298.773052,0.0,2023-09-29 18:31:38.773
126.0,31712.85619888976,52247.82851312501,45685.60221023586,8197.904610384061,59189.96741652101,50451.1058868296,-187500.02235174447,47200.24582150529,42398.66642936068,67984.06010676148,55846.302908218255,12567.760058374412,70075.289318,-137346.84286675966,77228.49574428747,61563.6332706968,0.06,1.022,-0.04,192.0,0.0,0.0,0.0,0.0,0.0,0.0,0.0,0.0,0.0,1696030298.773055,0.0,2023-09-29 18:31:38.773
128.0,31724.054422861867,52257.77503940762,45663.4292797362,8201.235020307902,59186.03350949688,50443.77451464826,-187500.02235174447,47187.01358878775,42397.504138649005,67990.16213299778,55859.15516128006,12565.34606997324,70073.81410286594,-137176.16494609893,77262.04571271488,61618.14917542329,0.06,1.022,-0.04,192.0,0.0,0.0,0.0,0.0,0.0,0.0,0.0,0.0,0.0,1696030298.773058,0.0,2023-09-29 18:31:38.773
130.0,31721.551027482878,52255.62927193991,45685.22223058012,8195.222401049425,59193.78956482287,50449.02717459526,-187500.02235174447,47196.60248715908,42406.91422306469,67978.00278401408,55851.7343821209,12575.046727066843,70076.22809126713,-137377.86708806362,77205.31698528731,61544.94721233216,0.06,1.022,-0.04,192.0,0.0,0.0,0.0,0.0,0.0,0.0,0.0,0.0,0.0,1696030298.773061,0.0,2023-09-29 18:31:38.773
132.0,31717.0359751029,52250.80129513757,45656.36612848832,8185.722909655919,59176.82459078129,50436.26432851128,-187500.02235174447,47184.063158519646,42396.92299329317,67989.35747019738,55858.35049847967,12568.229445007972,70079.62555642433,-137214.9899262178,77252.23329689901,61614.751710266086,0.058,1.022,-0.038,192.0,0.5,104.0,15.5,120.0,127.0,104.0,0.0,0.0,0.0,1696030298.773065,0.0,2023-09-29 18:31:38.773
134.0,31712.74444016748,52251.96358584924,45662.08817506888,8183.845363121673,59187.30755893083,50438.655965168,-187500.02235174447,47189.315818466646,42395.31366769239,67968.72681006513,55827.10275973115,12564.9660903175,70074.2387860106,-137368.61346585912,77208.66974695561,61559.76641890603,0.058,1.022,-0.038,192.0,0.0,0.0,0.0,0.0,0.0,0.0,0.0,0.0,0.0,1696030298.773068,0.0,2023-09-29 18:31:38.773
136.0,31715.627815202217,52254.779905650605,45649.72766038509,8179.196200274969,59178.88095127117,50437.001936078304,-187500.02235174447,47182.65499861896,42394.1066734918,67991.32442370945,55843.17366399452,12565.30136648433,70079.11146630185,-137218.92383324192,77255.36254112274,61622.75363478108,0.058,1.022,-0.038,192.0,0.0,0.0,0.0,0.0,0.0,0.0,0.0,0.0,0.0,1696030298.833274,0.0,2023-09-29 18:31:38.833
138.0,31713.772620412423,52251.18127479331,45670.06774783942,8175.508162439843,59191.50968688842,50442.67927916996,-187500.02235174447,47179.99514102878,42403.33794395184,67977.30987993597,55824.30879167424,12567.380078718672,70072.11537028734,-137349.94975923895,77216.87283717071,61571.255215556055,0.058,1.022,-0.038,192.0,0.0,0.0,0.0,0.0,0.0,0.0,0.0,0.0,0.0,1696030298.833293,0.0,2023-09-29 18:31:38.833
140.0,31720.96988212704,52255.96454810674,45658.28837851148,8175.351700228656,59181.89843677264,50439.035944823736,-187500.02235174447,47179.21282997284,42403.36029569629,67993.0455080325,55852.98607981039,12569.257625252918,70084.40882973776,-137229.8985397695,77259.47526210253,61625.81582377146,0.058,1.022,-0.038,192.0,0.0,0.0,0.0,0.0,0.0,0.0,0.0,0.0,0.0,1696030298.833297,0.0,2023-09-29 18:31:38.833
142.0,31724.434402517607,52258.87027488593,45667.98903560508,8180.067918308726,59189.81095430982,50438.0077645788,-187500.02235174447,47180.978617784815,42407.85299633181,67980.37206892634,55834.23296621239,12570.196398520042,70070.77426562003,-137338.32685212218,77217.76690694892,61577.60311098136,0.056,1.024,-0.038,192.0,0.5,96.0,16.0,0.0,127.0,104.0,0.0,0.0,0.0,1696030298.833301,0.0,2023-09-29 18:31:38.833
144.0,31730.04469037589,52268.32506279052,45659.16009654523,8181.297264253768,59189.721547332,50440.913491357984,-187500.02235174447,47182.09620500758,42415.18436851315,68005.0036913161,55861.99383282588,12576.991328834454,70090.46615248515,-137255.51363891526,77251.85331724327,61616.2939806335,0.056,1.024,-0.038,192.0,0.0,0.0,0.0,0.0,0.0,0.0,0.0,0.0,0.0,1696030298.833304,0.0,2023-09-29 18:31:38.833
146.0,31729.4411932756,52269.263836057646,45658.35543374485,8182.928941599005,59194.30365494534,50441.74050590283,-187500.02235174447,47175.256571204256,42410.87048183328,67995.66066213377,55840.91613780453,12580.500552713938,70073.52353018803,-137327.77682873927,77217.78925869337,61576.2843580585,0.056,1.024,-0.038,192.0,0.0,0.0,0.0,0.0,0.0,0.0,0.0,0.0,0.0,1696030298.833307,0.0,2023-09-29 18:31:38.833
148.0,31723.94266413959,52264.88289414441,45651.292282496965,8176.648101407064,59179.52915186038,50444.78034314876,-187500.02235174447,47179.4363474174,42402.756798596005,68009.22817101816,55860.76448688084,12574.82320962229,70090.4438007407,-137280.72640666086,77248.67936953061,61611.42130034224,0.056,1.024,-0.038,192.0,0.0,0.0,0.0,0.0,0.0,0.0,0.0,0.0,0.0,1696030298.83331,0.0,2023-09-29 18:31:38.833
150.0,31733.08452762181,52272.70600470377,45648.163038273226,8184.582970688698,59190.32504443229,50436.51019770029,-187500.02235174447,47168.21577170084,42403.74027535204,67990.2962434645,55824.95699226344,12576.29842475634,70072.80827436547,-137312.93527042097,77218.03512788238,61591.21532335464,0.056,1.024,-0.038,192.0,0.0,0.0,0.0,0.0,0.0,0.0,0.0,0.0,0.0,1696030298.833313,0.0,2023-09-29 18:31:38.833
152.0,31726.0884316073,52266.24635055618,45652.87925635329,8174.703499639452,59187.86635254221,50441.85226462511,-187500.02235174447,47183.59377188609,42411.831606844855,68007.14945878381,55856.584710667696,12577.863046868211,70093.70715543117,-137330.19081714045,77234.19543912356,61603.75465199407,0.06,1.022,-0.034,192.0,0.5,112.0,15.5,120.0,127.0,120.0,0.0,0.0,0.0,1696030298.89351,0.0,2023-09-29 18:31:38.893
154.0,31731.028167131924,52267.98978662369,45639.758782358025,8175.28464499529,59189.43097465408,50424.440255694426,-187500.02235174447,47165.5335623662,42406.06485677539,67988.82102833045,55827.34862892016,12577.371308490196,70068.76260861906,-137306.9673546514,77221.16437210613,61600.37953858132,0.06,1.022,-0.034,192.0,0.0,0.0,0.0,0.0,0.0,0.0,0.0,0.0,0.0,1696030298.893521,0.0,2023-09-29 18:31:38.893
156.0,31725.32847229582,52262.558312721056,45647.2242650061,8161.381859944089,59184.066555984806,50431.54811043121,-187500.02235174447,47175.86006830455,42410.66931613318,68000.62274940286,55861.8820741036,12575.225541022486,70084.9452716047,-137339.13151492257,77236.94470369157,61608.56027705196,0.06,1.022,-0.034,192.0,0.0,0.0,0.0,0.0,0.0,0.0,0.0,0.0,0.0,1696030298.893525,0.0,2023-09-29 18:31:38.893
158.0,31742.159335870667,52279.34447280699,45630.92984329818,8179.576179930709,59194.549524134345,50430.96696507537,-187500.02235174447,47162.09139372008,42406.62365038677,67990.43035393124,55836.35638193564,12579.941759102556,70068.51673943004,-137275.0714153137,77229.38981406568,61619.8926114908,0.06,1.022,-0.034,192.0,0.0,0.0,0.0,0.0,0.0,0.0,0.0,0.0,0.0,1696030298.893528,0.0,2023-09-29 18:31:38.893
160.0,31727.675405463626,52267.27453080112,45655.71792789912,8162.477095422399,59188.93923627606,50439.17005529047,-187500.02235174447,47182.76675734124,42419.63236565976,68001.02508080305,55867.3358997507,12585.64145393866,70090.8908356298,-137378.35882644163,77223.84658144077,61597.7420327356,0.06,1.022,-0.034,192.0,0.0,0.0,0.0,0.0,0.0,0.0,0.0,0.0,0.0,1696030298.893531,0.0,2023-09-29 18:31:38.893
162.0,31731.69871946558,52270.00144362467,45623.017325761,8164.980490801394,59184.133611218174,50427.16716851797,-187500.02235174447,47164.52773386571,42396.54301363743,67985.96000504018,55837.04928601376,12572.029241565377,70068.49438768558,-137244.67304285444,77249.64049454218,61637.39402739931,0.06,1.022,-0.034,192.0,0.5,112.0,15.5,120.0,127.0,120.0,0.0,0.0,0.0,1696030298.893534,0.0,2023-09-29 18:31:38.893
164.0,31731.20698108757,52269.12972559092,45650.75584063004,8164.555807656742,59198.34932069175,50451.351756018616,-187500.02235174447,47191.886269079005,42411.54103416694,67988.66456611926,55845.252376228855,12578.10891605722,70081.54780644749,-137391.61341090364,77215.26351156992,61585.023890140525,0.06,1.022,-0.034,192.0,0.0,0.0,0.0,0.0,0.0,0.0,0.0,0.0,0.0,1696030298.893537,0.0,2023-09-29 18:31:38.893
166.0,31730.178800842623,52268.41446976834,45625.09603799535,8155.011612774327,59184.37948040718,50430.34111623062,-187500.02235174447,47165.108879221545,42404.16495849669,67987.12229575185,55838.14452149207,12570.35286073123,70070.41663770874,-137253.45727842537,77243.82904098381,61628.14040519481,0.06,1.022,-0.034,192.0,0.0,0.0,0.0,0.0,0.0,0.0,0.0,0.0,0.0,1696030298.953767,0.0,2023-09-29 18:31:38.953
168.0,31726.915446152147,52268.77209767963,45642.19512250365,8153.670508107008,59195.19772472355,50445.42854373796,-187500.02235174447,47184.890173064494,42412.2115865006,67983.61307187237,55843.95597505045,12573.504456699427,70076.92099534524,-137404.9797540879,77215.91171215913,61581.60407323887,0.06,1.022,-0.034,192.0,0.0,0.0,0.0,0.0,0.0,0.0,0.0,0.0,0.0,1696030298.95378,0.0,2023-09-29 18:31:38.953
170.0,31728.010681630454,52268.19095232379,45615.95417451313,8153.536397640276,59181.16082920562,50431.57046217567,-187500.02235174447,47165.48885887729,42402.890909062735,67983.52366489454,55841.497283160366,12566.888340340656,70070.01430630856,-137237.18520846192,77252.68033178811,61638.6010215999,0.06,1.022,-0.034,192.0,0.0,0.0,0.0,0.0,0.0,0.0,0.0,0.0,0.0,1696030298.953783,0.0,2023-09-29 18:31:38.953
172.0,31729.128268853223,52268.39211802389,45642.8209713484,8154.005784273838,59189.81095430982,50449.02717459526,-187500.02235174447,47184.57724864212,42415.02790630197,67986.02706027354,55847.711068118944,12577.974805590487,70081.77132389204,-137395.18969001647,77226.23821809748,61585.47092502963,0.054,1.022,-0.036,192.0,0.5,88.0,15.5,120.0,127.0,112.0,0.0,0.0,0.0,1696030298.953787,0.0,2023-09-29 18:31:38.953
174.0,31735.23029508952,52273.84594367098,45618.68108733667,8155.503351152343,59186.74876531944,50436.532549444746,-187500.02235174447,47165.57826585511,42409.328211465865,67992.44201093221,55854.01426005534,12578.265378268406,70077.90447210128,-137227.8421792796,77259.22939291352,61640.90325127879,0.054,1.022,-0.036,192.0,0.0,0.0,0.0,0.0,0.0,0.0,0.0,0.0,0.0,1696030298.95379,0.0,2023-09-29 18:31:38.953
176.0,31734.2915218224,52272.8401151705,45637.16598000121,8154.050487762748,59195.06361425682,50444.66858442648,-187500.02235174447,47178.60933287256,42419.52060693748,67986.33998469591,55849.29804197527,12579.986462591463,70080.05023956898,-137410.4782832239,77214.70471795854,61576.41846852523,0.054,1.022,-0.036,192.0,0.0,0.0,0.0,0.0,0.0,0.0,0.0,0.0,0.0,1696030298.953793,0.0,2023-09-29 18:31:38.953
178.0,31739.208905602565,52276.99753963918,45621.98914551606,8159.526665154299,59187.352262419736,50438.208930278895,-187500.02235174447,47161.39848964197,42417.95598482561,68004.93663608273,55865.34659449418,12586.177895805586,70083.91709135975,-137264.7002058864,77241.83973572728,61629.30269590649,0.054,1.022,-0.036,192.0,0.0,0.0,0.0,0.0,0.0,0.0,0.0,0.0,0.0,1696030298.953796,0.0,2023-09-29 18:31:38.953
180.0,31735.29735032289,52272.46013551475,45642.21747424812,8150.809484816728,59193.54369563385,50447.5072559723,-187500.02235174447,47169.19924845687,42419.83353135986,67991.88321732084,55856.96469032344,12586.513171972416,70077.63625116782,-137429.27610031082,77207.9768428775,61578.67599471522,0.054,1.022,-0.036,192.0,0.0,0.0,0.0,0.0,0.0,0.0,0.0,0.0,0.0,1696030298.953799,0.0,2023-09-29 18:31:38.953
182.0,31737.66663523515,52275.03058612712,45617.04940999144,8151.569444128209,59184.08890772926,50445.45089548241,-187500.02235174447,47163.298387920666,42414.290298734944,68008.91524659577,55871.828600386216,12581.77460214789,70081.5925099364,-137258.79934535018,77257.86593650174,61645.82063505896,0.054,1.024,-0.036,192.0,0.5,88.0,16.0,0.0,127.0,112.0,0.0,0.0,0.0,1696030299.013266,0.0,2023-09-29 18:31:39.013
184.0,31746.741443484003,52288.2404671002,45637.27773872349,8163.415868689522,59197.03056776888,50461.56650323469,-187500.02235174447,47175.54714388218,42423.47686570607,67996.01829004506,55848.33691696369,12593.39750926465,70076.96569883414,-137415.7309431709,77215.79995343686,61588.801334953474,0.054,1.024,-0.036,192.0,0.0,0.0,0.0,0.0,0.0,0.0,0.0,0.0,0.0,1696030299.013276,0.0,2023-09-29 18:31:39.013
186.0,31747.859030706768,52286.96641766625,45634.48377066658,8161.225397732902,59190.52621013239,50457.74435493283,-187500.02235174447,47176.15064098247,42428.37189774179,68025.4555374927,55881.50690573537,12605.802727437343,70093.57304496445,-137295.903241146,77259.02822721342,61639.22687044465,0.054,1.024,-0.036,192.0,0.0,0.0,0.0,0.0,0.0,0.0,0.0,0.0,0.0,1696030299.013279,0.0,2023-09-29 18:31:39.013
188.0,31741.55583877037,52277.08694661701,45637.18833174567,8152.999955773349,59195.220076468,50453.63163395305,-187500.02235174447,47170.24978044627,42425.35441224032,68000.3992319583,55864.16195203805,12592.101108086244,70085.05703032698,-137403.9292220985,77232.6755205006,61597.07148040194,0.054,1.024,-0.036,192.0,0.0,0.0,0.0,0.0,0.0,0.0,0.0,0.0,0.0,1696030299.013282,0.0,2023-09-29 18:31:39.013
190.0,31741.779356214927,52275.11999310493,45625.34190718435,8145.512121380821,59184.558294362825,50450.83766589614,-187500.02235174447,47166.60644610005,42423.096886050334,68017.00657808859,55888.65946396106,12589.284788284873,70097.52930373303,-137298.7195609474,77265.51023310545,61640.2997541785,0.054,1.024,-0.036,192.0,0.0,0.0,0.0,0.0,0.0,0.0,0.0,0.0,0.0,1696030299.013285,0.0,2023-09-29 18:31:39.013
192.0,31742.740481226505,52279.72445246273,45629.02994501948,8153.134066240081,59194.616579367714,50451.77643916327,-187500.02235174447,47168.59575135657,42414.64792664623,67999.16988601326,55862.86555085964,12587.49664872845,70084.20766403768,-137379.94580029795,77232.38494782269,61604.15698339427,0.056,1.022,-0.032,192.0,0.5,96.0,15.5,120.0,127.5,0.0,0.0,0.0,0.0,1696030299.013289,0.0,2023-09-29 18:31:39.013
194.0,31738.71716722455,52274.27062681563,45624.22431996159,8147.724944081896,59185.60882635223,50450.502389729314,-187500.02235174447,47172.797879314174,42411.89866207822,68022.9074386248,55887.22895231593,12592.615198208714,70100.43503051222,-137303.659296472,77269.46649187405,61641.506748379084,0.056,1.022,-0.032,192.0,0.0,0.0,0.0,0.0,0.0,0.0,0.0,0.0,0.0,1696030299.013292,0.0,2023-09-29 18:31:39.013
196.0,31745.869725450248,52280.2385425852,45622.68204959417,8144.394534158056,59191.263817699415,50447.216683294384,-187500.02235174447,47164.01364374324,42419.90058659323,68000.64510114731,55857.232911256906,12591.855238897231,70080.96666109165,-137353.34722439616,77237.83877346979,61607.822669484936,0.056,1.022,-0.032,192.0,0.0,0.0,0.0,0.0,0.0,0.0,0.0,0.0,0.0,1696030299.072914,0.0,2023-09-29 18:31:39.072
198.0,31741.35467307028,52274.80706868257,45618.14464546974,8135.409132887022,59179.6185588382,50445.674412926965,-187500.02235174447,47168.886324034494,42421.88989184974,68011.32923499694,55886.22312381544,12585.172067305097,70095.56235022096,-137321.94302343644,77264.8396807718,61633.95185875319,0.056,1.022,-0.032,192.0,0.0,0.0,0.0,0.0,0.0,0.0,0.0,0.0,0.0,1696030299.072957,0.0,2023-09-29 18:31:39.072
200.0,31749.513059796463,52278.9421414068,45609.44981687663,8140.170054456003,59186.74876531944,50437.82895062315,-187500.02235174447,47157.03989947318,42422.20281627212,67987.70344110769,55853.88014958861,12577.795991634846,70066.16980626223,-137330.70490726293,77234.7318809905,61618.41739635675,0.056,1.022,-0.032,192.0,0.0,0.0,0.0,0.0,0.0,0.0,0.0,0.0,0.0,1696030299.072961,0.0,2023-09-29 18:31:39.072
202.0,31734.738556711505,52267.49804824568,45621.16213097121,8130.067065962204,59180.289111171856,50448.28956702824,-187500.02235174447,47168.01460600074,42421.77813312747,68006.63536866133,55887.31835929375,12578.57830269078,70093.26012054207,-137347.155791182,77248.20998289705,61626.10639644938,0.054,1.022,-0.034,192.0,0.5,88.0,15.5,120.0,127.0,120.0,0.0,0.0,0.0,1696030299.072964,0.0,2023-09-29 18:31:39.072
204.0,31748.350769084787,52281.33377806351,45604.71124705211,8137.80076954374,59189.25216069844,50439.728848901854,-187500.02235174447,47145.64050980098,42413.28447023445,67993.91722606626,55853.00843155485,12578.287730012862,70072.00361156507,-137287.8566131421,77241.61621828272,61631.62727732984,0.054,1.022,-0.034,192.0,0.0,0.0,0.0,0.0,0.0,0.0,0.0,0.0,0.0,1696030299.072967,0.0,2023-09-29 18:31:39.072
206.0,31742.11463238176,52275.52232450513,45625.67718335118,8130.871728762595,59193.1190124892,50452.91637813048,-187500.02235174447,47169.802745557165,42430.83058963187,68012.96091234218,55881.05987084626,12587.742517917455,70089.16975130675,-137366.55710536923,77233.43547981209,61609.87902997483,0.054,1.022,-0.034,192.0,0.0,0.0,0.0,0.0,0.0,0.0,0.0,0.0,0.0,1696030299.072971,0.0,2023-09-29 18:31:39.072
208.0,31749.267190607454,52281.62435074143,45603.8618807628,8136.034981731771,59192.180239222085,50435.28085175525,-187500.02235174447,47147.67451854641,42422.06870580539,68004.31078723798,55858.21638801294,12581.238160280964,70071.10954178686,-137277.1948310369,77244.47724157301,61624.36296038186,0.054,1.022,-0.034,192.0,0.0,0.0,0.0,0.0,0.0,0.0,0.0,0.0,0.0,1696030299.072974,0.0,2023-09-29 18:31:39.072
210.0,31755.592734288304,52287.94989442229,45634.439067177664,8137.823121288196,59197.29878870235,50455.08449734265,-187500.02235174447,47163.924236765415,42436.77615365698,68023.37682525835,55884.27852204783,12590.78235516338,70094.28830078701,-137392.97686731542,77228.78631696539,61591.34943382138,0.054,1.022,-0.034,192.0,0.0,0.0,0.0,0.0,0.0,0.0,0.0,0.0,0.0,1696030299.072977,0.0,2023-09-29 18:31:39.072
212.0,31758.2972953674,52288.39692931139,45617.87642453628,8134.917394509005,59189.76625082091,50438.38774423453,-187500.02235174447,47144.85819874504,42436.32911876788,68024.96379911469,55876.656577188565,12592.190515064063,70080.63138492483,-137289.0636073427,77239.9845409375,61618.75267252358,0.056,1.024,-0.034,192.0,0.5,96.0,16.0,0.0,127.0,120.0,0.0,0.0,0.0,1696030299.133315,0.0,2023-09-29 18:31:39.133
214.0,31754.38574008772,52287.569914766544,45627.532378140975,8130.916432251505,59191.6214456107,50457.49848574383,-187500.02235174447,47156.034070972695,42435.54680771194,68024.3603020144,55883.00447261387,12585.73086091648,70093.72950717562,-137408.3325157562,77230.95443617755,61589.51659077604,0.056,1.024,-0.034,192.0,0.0,0.0,0.0,0.0,0.0,0.0,0.0,0.0,0.0,1696030299.133327,0.0,2023-09-29 18:31:39.133
216.0,31745.959132428063,52276.30463556107,45589.80263350042,8120.031132701771,59173.13655294616,50429.33528773014,-187500.02235174447,47119.75718972173,42425.80144712942,68023.89091538083,55860.3845072251,12576.186666034064,70081.54780644749,-137284.03446484022,77237.16822113612,61627.06752146096,0.056,1.024,-0.034,192.0,0.0,0.0,0.0,0.0,0.0,0.0,0.0,0.0,0.0,1696030299.133331,0.0,2023-09-29 18:31:39.133
218.0,31738.27013233544,52272.86246691495,45607.30404940892,8115.426673343978,59182.47958212848,50443.998032092815,-187500.02235174447,47142.44421034386,42426.53905469645,68017.96770310018,55863.06671655974,12575.516113700403,70095.0482600985,-137437.61330099264,77209.0273748669,61578.89951215977,0.056,1.024,-0.034,192.0,0.0,0.0,0.0,0.0,0.0,0.0,0.0,0.0,0.0,1696030299.133334,0.0,2023-09-29 18:31:39.133
220.0,31741.600542259283,52273.0412808706,45582.42655783016,8114.018513443293,59175.30467215832,50425.22256675036,-187500.02235174447,47122.59586126755,42414.15618826821,68011.97743558614,55861.30092874777,12568.765886874902,70084.83351288241,-137275.2055257804,77237.21292462504,61630.599097084894,0.056,1.024,-0.034,192.0,0.0,0.0,0.0,0.0,0.0,0.0,0.0,0.0,0.0,1696030299.133337,0.0,2023-09-29 18:31:39.133
222.0,31740.102975380774,52273.2871500596,45606.40997963071,8109.145833152036,59187.84400079776,50439.035944823736,-187500.02235174447,47143.87472198901,42425.30970875141,68002.14266802582,55866.15125729457,12570.39756422014,70084.7441059046,-137457.64046402462,77192.95647060353,61575.36793653583,0.06,1.014,-0.03,192.0,0.5,112.0,15.5,88.0,127.5,8.0,0.0,0.0,0.0,1696030299.133341,0.0,2023-09-29 18:31:39.133
224.0,31740.95234167008,52274.02475762663,45581.26426711849,8106.731844750863,59173.49418085744,50421.780398104245,-187500.02235174447,47123.4228758124,42422.22516801658,68020.06876707898,55868.31937650673,12569.883474097667,70083.291242515,-137290.73998817682,77232.00496816695,61634.26478317557,0.06,1.014,-0.03,192.0,0.0,0.0,0.0,0.0,0.0,0.0,0.0,0.0,0.0,1696030299.133344,0.0,2023-09-29 18:31:39.133
226.0,31732.928065410622,52268.14624883488,45595.59173531434,8097.321760335179,59187.84400079776,50428.17299701846,-187500.02235174447,47136.6774602744,42423.40981047271,68011.53040069704,55853.56722516623,12568.408258963616,70082.86655937035,-137462.08846117122,77194.40933399313,61572.14928533426,0.06,1.014,-0.03,192.0,0.0,0.0,0.0,0.0,0.0,0.0,0.0,0.0,0.0,1696030299.193516,0.0,2023-09-29 18:31:39.193
228.0,31724.25558856197,52256.50098997367,45571.38479606925,8083.5307340062545,59175.97522449199,50410.15749098748,-187500.02235174447,47116.82911119809,42413.08330453435,68012.78209838654,55858.17168452402,12553.946680301033,70081.65956516976,-137298.78661618073,77236.45296531355,61626.91105924977,0.06,1.014,-0.03,192.0,0.0,0.0,0.0,0.0,0.0,0.0,0.0,0.0,0.0,1696030299.193547,0.0,2023-09-29 18:31:39.193
230.0,31727.273074063432,52258.17737080782,45592.21662190159,8086.727033463363,59184.133611218174,50421.154549259496,-187500.02235174447,47128.00498342574,42410.937537066646,67989.33511845293,55839.99971628186,12546.525901141871,70073.41177146576,-137442.17305686153,77203.68530794207,61574.00448012406,0.06,1.014,-0.03,192.0,0.0,0.0,0.0,0.0,0.0,0.0,0.0,0.0,0.0,1696030299.193551,0.0,2023-09-29 18:31:39.193
232.0,31739.298312580388,52272.19191458129,45583.36533109729,8095.086585889649,59172.62246282369,50426.16134001748,-187500.02235174447,47123.95931767933,42419.76647612649,68016.4030809883,55868.34172825119,12559.087581525751,70082.41952448124,-137279.22883978236,77248.61231429724,61635.2482599316,0.064,1.018,-0.032,192.0,1.0,0.0,15.5,104.0,127.5,0.0,0.0,0.0,0.0,1696030299.193554,0.0,2023-09-29 18:31:39.193
234.0,31743.276923093432,52276.72931870572,45597.335171381856,8096.539449279243,59182.47958212848,50435.32555524416,-187500.02235174447,47130.82130322711,42425.35441224032,68000.06395579147,55859.3339752357,12563.401468205628,70074.10467554387,-137410.00889659036,77208.20036032205,61587.77315470853,0.064,1.018,-0.032,192.0,0.0,0.0,0.0,0.0,0.0,0.0,0.0,0.0,0.0,1696030299.193557,0.0,2023-09-29 18:31:39.193
236.0,31745.690911494603,52281.17731585233,45589.04267418894,8097.455870801911,59174.38825063566,50432.01749706477,-187500.02235174447,47130.59778578256,42430.5623686984,68022.5051072246,55883.071527847234,12565.927215329077,70082.62069018134,-137277.887735115,77246.42184334062,61640.0985884784,0.064,1.018,-0.032,192.0,0.0,0.0,0.0,0.0,0.0,0.0,0.0,0.0,0.0,1696030299.19356,0.0,2023-09-29 18:31:39.193
238.0,31751.25649586397,52287.92754267783,45598.05042720443,8104.65313251652,59185.96645426351,50443.72981115936,-187500.02235174447,47137.23625388578,42433.378688499775,68007.21651401717,55859.57984442471,12570.0175845644,70072.20477726517,-137381.62218113212,77212.35778479073,61599.17254438074,0.064,1.018,-0.032,192.0,0.0,0.0,0.0,0.0,0.0,0.0,0.0,0.0,0.0,1696030299.193564,0.0,2023-09-29 18:31:39.193
240.0,31757.023245933444,52293.96251368076,45590.38377885625,8104.966056938894,59180.69144257205,50451.77643916327,-187500.02235174447,47141.23721614328,42437.53611296846,68032.33987478494,55889.28531280581,12578.265378268406,70089.3485652624,-137283.4980229733,77248.81347999733,61647.09468449291,0.064,1.018,-0.032,192.0,0.0,0.0,0.0,0.0,0.0,0.0,0.0,0.0,0.0,1696030299.193567,0.0,2023-09-29 18:31:39.193
242.0,31758.65492327868,52295.3930253259,45599.34682838283,8105.100167405626,59197.3211404468,50457.56554097719,-187500.02235174447,47137.1244951635,42441.51472348151,68015.24079027663,55867.715879406445,12582.042823081354,70079.06676281294,-137371.29567519377,77211.10608710123,61605.11810840585,0.06,1.022,-0.032,192.0,0.5,112.0,15.5,120.0,127.5,0.0,0.0,0.0,0.0,1696030299.25379,0.0,2023-09-29 18:31:39.253
244.0,31751.85999296427,52290.83326945702,45598.74333128254,8096.785318468252,59191.77790782189,50454.0563170977,-187500.02235174447,47141.125457421,42443.571083971394,68040.87824116687,55905.46797579146,12585.64145393866,70097.93163513322,-137310.8118546977,77251.96507596553,61642.11024547938,0.06,1.022,-0.032,192.0,0.0,0.0,0.0,0.0,0.0,0.0,0.0,0.0,0.0,1696030299.2538,0.0,2023-09-29 18:31:39.253
246.0,31761.203022146587,52297.62819977143,45596.82108125938,8102.55206853772,59200.76330909292,50447.5072559723,-187500.02235174447,47136.14101840747,42435.904435623226,68021.47692697965,55874.15318180957,12581.752250403437,70076.09398080039,-137339.0644596892,77230.35093907725,61615.802242255486,0.06,1.022,-0.032,192.0,0.0,0.0,0.0,0.0,0.0,0.0,0.0,0.0,0.0,1696030299.253803,0.0,2023-09-29 18:31:39.253
248.0,31761.91827796916,52296.55531603758,45611.26030817751,8099.601638269621,59200.8750678152,50453.36341301959,-187500.02235174447,47150.73670753679,42446.00742411702,68039.20186033272,55905.6467897471,12586.691985928055,70095.83057115442,-137336.20343639894,77247.5841340523,61632.11901570786,0.06,1.022,-0.032,192.0,0.0,0.0,0.0,0.0,0.0,0.0,0.0,0.0,0.0,1696030299.253806,0.0,2023-09-29 18:31:39.253
250.0,31758.520812811952,52290.09566189,45596.150528925726,8097.500574290821,59198.55048639185,50439.08064831265,-187500.02235174447,47133.90584396194,42443.41462176021,68018.66060717829,55880.635187701606,12583.898017871144,70080.02788782453,-137332.33658460816,77227.46756404253,61622.06073070297,0.06,1.022,-0.032,192.0,0.0,0.0,0.0,0.0,0.0,0.0,0.0,0.0,0.0,1696030299.25381,0.0,2023-09-29 18:31:39.253
252.0,31751.167088886155,52284.93240892082,45610.09801746583,8098.215830113391,59188.15692522013,50444.93680535994,-187500.02235174447,47154.93883549438,42439.77128741399,68031.13288058435,55903.63513274612,12585.194419049552,70095.0929635874,-137343.80302951374,77250.15458466466,61630.28617266252,0.058,1.024,-0.03,192.0,0.5,104.0,16.0,0.0,127.5,8.0,0.0,0.0,0.0,1696030299.253821,0.0,2023-09-29 18:31:39.253
254.0,31757.60439128928,52290.27447584564,45594.34003762485,8107.514155806799,59189.38627116517,50428.15064527401,-187500.02235174447,47139.98551845378,42434.56333095591,68017.16304029978,55874.39905099858,12582.48985797046,70073.23295751012,-137283.36391250658,77242.86791597222,61631.42611162974,0.058,1.024,-0.03,192.0,0.0,0.0,0.0,0.0,0.0,0.0,0.0,0.0,0.0,1696030299.253824,0.0,2023-09-29 18:31:39.253
0.0,31755.682141266127,52291.43676655731,45623.84434030585,8112.655057031519,59193.5213438894,50447.17197980547,-187500.02235174447,47168.14871646747,42448.39906077374,68033.72568294116,55896.16965009805,12593.77748892039,70093.03660309751,-137357.59405584267,77235.93887519109,61612.650646287286,0.058,1.024,-0.03,192.0,0.0,0.0,0.0,0.0,0.0,0.0,0.0,0.0,0.0,1696030299.314116,0.0,2023-09-29 18:31:39.314
2.0,31757.62674303374,52289.78273746762,45612.10967446681,8125.708475793419,59192.2696461999,50426.98835456233,-187500.02235174447,47149.105030191546,42441.09004033686,68021.54398221303,55873.34851900918,12588.59188420676,70075.46813195564,-137260.22985699534,77247.62883754121,61634.13067270884,0.058,1.024,-0.03,192.0,0.0,0.0,0.0,0.0,0.0,0.0,0.0,0.0,0.0,1696030299.314127,0.0,2023-09-29 18:31:39.314
4.0,31757.514984311463,52291.7943944686,45647.09015453937,8137.621955588098,59198.72930034749,50450.56944496268,-187500.02235174447,47175.61419911554,42447.92967414018,68032.33987478494,55888.57005698324,12590.089451085263,70094.46711474266,-137364.7689658128,77239.9845409375,61606.50391656208,0.058,1.024,-0.03,192.0,0.0,0.0,0.0,0.0,0.0,0.0,0.0,0.0,0.0,1696030299.314131,0.0,2023-09-29 18:31:39.314
6.0,31762.007684946977,52294.16367938086,45636.60718638983,8147.948461526449,59195.08596600127,50437.24780526732,-187500.02235174447,47161.689062319885,42448.51081949602,68038.77717718807,55875.76250741035,12589.39654700715,70080.05023956898,-137236.58171136162,77254.80374751137,61644.25601294709,0.054,1.024,-0.03,192.0,0.5,88.0,16.0,0.0,127.5,8.0,0.0,0.0,0.0,1696030299.314135,0.0,2023-09-29 18:31:39.314
8.0,31753.581077287326,52288.08400488902,45670.62654145081,8153.022307517805,59204.04901552785,50455.55388397621,-187500.02235174447,47187.14769925448,42452.73529919807,68044.11924411288,55887.58658022721,12594.023358109398,70097.97633862215,-137360.14215471057,77241.72797700501,61611.95774220917,0.054,1.024,-0.03,192.0,0.0,0.0,0.0,0.0,0.0,0.0,0.0,0.0,0.0,1696030299.314139,0.0,2023-09-29 18:31:39.314
10.0,31760.376007601742,52295.88476370392,45653.54980868696,8166.612168146631,59197.81287882482,50443.88627337054,-187500.02235174447,47172.39554791398,42445.515685739,68038.88893591033,55865.39129798309,12590.804706907837,70079.96083259115,-137224.02003097773,77257.03892195689,61645.91004203678,0.054,1.024,-0.03,192.0,0.0,0.0,0.0,0.0,0.0,0.0,0.0,0.0,0.0,1696030299.314142,0.0,2023-09-29 18:31:39.314
12.0,31749.870687707746,52289.00042641168,45688.26206782604,8168.690880380975,59203.57962889429,50451.7093839299,-187500.02235174447,47194.14379526899,42447.95202588463,68036.87727890936,55868.83346662921,12592.570494719805,70087.40396349478,-137381.5327741543,77232.11672688923,61593.338739077895,0.054,1.024,-0.03,192.0,0.0,0.0,0.0,0.0,0.0,0.0,0.0,0.0,0.0,1696030299.314146,0.0,2023-09-29 18:31:39.314
14.0,31757.403225589187,52293.82840321403,45670.13480307279,8179.173848530513,59197.61171312472,50439.661793668485,-187500.02235174447,47172.97669326982,42444.0181188605,68043.5604505015,55864.988966582896,12594.716262187512,70080.63138492483,-137196.50503355326,77271.23227968601,61647.787588571024,0.054,1.024,-0.03,192.0,0.0,0.0,0.0,0.0,0.0,0.0,0.0,0.0,0.0,1696030299.31415,0.0,2023-09-29 18:31:39.314
16.0,31747.90373419568,52283.52424902013,45699.72851273161,8178.525647941309,59201.88089631568,50451.61997695208,-187500.02235174447,47190.54516441168,42451.125973597285,68026.28255203755,55855.42241995602,12591.899942386144,70082.57598669243,-137367.40647165853,77226.99817740895,61580.9335209052,0.054,1.022,-0.034,192.0,0.5,88.0,15.5,120.0,127.0,120.0,0.0,0.0,0.0,1696030299.37338,0.0,2023-09-29 18:31:39.373
18.0,31753.491670309508,52286.318217077045,45677.51087874304,8186.348758500667,59190.23563745447,50443.68510767044,-187500.02235174447,47174.92129503743,42444.82278166089,68032.09400559592,55856.04826880077,12585.864971383213,70086.2416727831,-137178.60128624455,77270.56172735235,61641.26087919008,0.054,1.022,-0.034,192.0,0.0,0.0,0.0,0.0,0.0,0.0,0.0,0.0,0.0,1696030299.373389,0.0,2023-09-29 18:31:39.373
20.0,31740.30414108088,52272.50483900367,45705.22704186762,8187.086366067692,59201.29975095985,50453.11754383058,-187500.02235174447,47189.80755684466,42454.29992130994,68017.6547786778,55843.64305062808,12588.234256295476,70090.3990972518,-137375.98954152936,77208.46858125551,61563.0297735965,0.054,1.022,-0.034,192.0,0.0,0.0,0.0,0.0,0.0,0.0,0.0,0.0,0.0,1696030299.373392,0.0,2023-09-29 18:31:39.373
22.0,31731.47520202103,52262.49125748769,45674.67220719722,8185.834668378195,59186.5699513638,50439.99706983531,-187500.02235174447,47174.47426014832,42440.57595021439,68018.21357228918,55853.58957691069,12577.14779104564,70091.4943327301,-137188.45840554935,77266.87368951723,61638.15398671079,0.054,1.022,-0.034,192.0,0.0,0.0,0.0,0.0,0.0,0.0,0.0,0.0,0.0,1696030299.373395,0.0,2023-09-29 18:31:39.373
24.0,31727.00485312997,52261.70894643176,45694.02881789552,8194.57420046022,59202.64085562716,50458.21374156639,-187500.02235174447,47187.6394376325,42441.87235139279,68000.1533627693,55829.2261754544,12580.232331780477,70074.68582089971,-137350.59795982816,77211.70958420153,61569.48942774408,0.054,1.022,-0.034,192.0,0.0,0.0,0.0,0.0,0.0,0.0,0.0,0.0,0.0,1696030299.373398,0.0,2023-09-29 18:31:39.373
26.0,31715.29253903539,52250.39896373737,45681.7353584451,8189.567409702231,59187.93340777558,50448.17780830596,-187500.02235174447,47183.2361439748,42435.09977282283,68019.53232521204,55852.44963794346,12579.96411084701,70087.78394315051,-137204.35049585707,77255.25078240047,61635.82940528744,0.054,1.024,-0.032,192.0,0.5,88.0,16.0,0.0,127.5,0.0,0.0,0.0,0.0,1696030299.373401,0.0,2023-09-29 18:31:39.373
28.0,31710.643376188684,52247.33677474699,45691.50307077207,8185.521743955821,59199.75748059243,50442.72398265886,-187500.02235174447,47183.59377188609,42432.64108093275,67990.76563009806,55819.90549801654,12570.844599109245,70077.99387907909,-137329.67672701797,77215.82230518131,61584.37568955132,0.054,1.024,-0.032,192.0,0.0,0.0,0.0,0.0,0.0,0.0,0.0,0.0,0.0,1696030299.373405,0.0,2023-09-29 18:31:39.373
30.0,31701.50151270646,52233.81396935153,45680.41660552223,8186.728738156407,59192.00142526644,50436.42079072247,-187500.02235174447,47179.05636776166,42428.64011867525,68007.23886576162,55838.07746625871,12568.63177640817,70088.40979199526,-137213.9393942284,77252.25564864346,61625.3464371379,0.054,1.024,-0.032,192.0,0.0,0.0,0.0,0.0,0.0,0.0,0.0,0.0,0.0,1696030299.433128,0.0,2023-09-29 18:31:39.433
32.0,31690.280936989897,52219.3747424334,45691.4360155387,8177.765688629829,59195.73416659048,50430.63168890854,-187500.02235174447,47167.29935017817,42422.53809243896,67977.84632180289,55809.64604731155,12554.572529145782,70072.07066679843,-137303.3016685607,77218.68332847158,61579.83828542689,0.054,1.024,-0.032,192.0,0.0,0.0,0.0,0.0,0.0,0.0,0.0,0.0,0.0,1696030299.43315,0.0,2023-09-29 18:31:39.433
34.0,31684.5812421538,52205.94134401576,45676.16977407572,8176.04460430677,59192.40375666664,50436.309032000194,-187500.02235174447,47173.96017002585,42426.315537251896,67983.36720268335,55825.85106204165,12551.487988410949,70087.80629489498,-137213.76058027276,77243.1361369057,61612.360073609365,0.054,1.024,-0.032,192.0,0.0,0.0,0.0,0.0,0.0,0.0,0.0,0.0,0.0,1696030299.433153,0.0,2023-09-29 18:31:39.433
36.0,31669.65027685765,52188.1717071738,45676.63916070928,8169.85317109265,59194.63893111217,50427.010706306784,-187500.02235174447,47163.20898094284,42424.03565931746,67944.07283593093,55794.40215759303,12537.294630681828,70071.66833539824,-137294.27156380078,77199.46082824001,61564.75085791957,0.054,1.022,-0.036,192.0,0.5,88.0,15.5,120.0,127.0,112.0,0.0,0.0,0.0,1696030299.433156,0.0,2023-09-29 18:31:39.433
38.0,31659.636695341676,52178.06871867999,45674.6275037083,8163.795848345262,59179.70796581602,50427.77066561826,-187500.02235174447,47171.6355886025,42412.63626964525,67952.07476044593,55810.316599645215,12527.99630498842,70081.25723376957,-137228.22215893533,77236.52002054692,61597.45146005767,0.054,1.022,-0.036,192.0,0.0,0.0,0.0,0.0,0.0,0.0,0.0,0.0,0.0,1696030299.43316,0.0,2023-09-29 18:31:39.433
40.0,31658.98849475247,52176.59350354594,45666.5808757044,8169.450839692455,59186.07821298578,50421.73569461533,-187500.02235174447,47158.9845012408,42409.03763878794,67938.17197539473,55775.47023003939,12528.041008477332,70058.05612302496,-137244.27071145424,77210.41318302312,61575.56910223593,0.054,1.022,-0.036,192.0,0.0,0.0,0.0,0.0,0.0,0.0,0.0,0.0,0.0,1696030299.433163,0.0,2023-09-29 18:31:39.433
42.0,31652.014750482413,52169.97738718717,45676.16977407572,8171.61895890462,59185.69823333004,50431.05637205319,-187500.02235174447,47177.067062505135,42413.35152546782,67949.66077204475,55802.15821291903,12533.71835156898,70075.24461451109,-137243.57780737613,77225.0759273858,61584.17452385122,0.054,1.022,-0.036,192.0,0.0,0.0,0.0,0.0,0.0,0.0,0.0,0.0,0.0,1696030299.433166,0.0,2023-09-29 18:31:39.433
44.0,31650.338369648263,52166.5128667966,45672.70525368515,8171.529551926798,59188.536904875866,50421.95921205988,-187500.02235174447,47160.41501288593,42410.82577834437,67925.2303153551,55769.07763112517,12529.67268582257,70055.37391369032,-137238.48160964032,77200.84663639625,61565.935500375694,0.054,1.022,-0.036,192.0,0.0,0.0,0.0,0.0,0.0,0.0,0.0,0.0,0.0,1696030299.43317,0.0,2023-09-29 18:31:39.433
46.0,31638.044910197845,52154.46527653519,45686.87625966981,8167.729755369396,59178.612730337714,50424.97669756135,-187500.02235174447,47172.797879314174,42408.68001087666,67936.38383583831,55795.47504132689,12523.078921208256,70082.71009715916,-137265.05783379768,77221.72316571751,61569.914110888734,0.056,1.022,-0.038,192.0,0.5,96.0,15.5,120.0,127.0,104.0,0.0,0.0,0.0,1696030299.493471,0.0,2023-09-29 18:31:39.493
48.0,31636.703805530527,52149.011450888094,45677.42147176522,8172.602435660653,59184.89357052965,50410.31395319867,-187500.02235174447,47156.41405062843,42400.58867938384,67913.74151870508,55766.4624770239,12521.134319440642,70067.42150395173,-137207.34562961408,77209.56381673382,61574.831494668906,0.056,1.022,-0.038,192.0,0.0,0.0,0.0,0.0,0.0,0.0,0.0,0.0,0.0,1696030299.493481,0.0,2023-09-29 18:31:39.493
50.0,31620.23056986697,52135.66745944828,45690.094910871376,8163.013537289326,59186.927579275085,50425.53549117273,-187500.02235174447,47178.76579508374,42400.499272406014,67913.38389079379,55787.18254413397,12518.653275806104,70087.51572221705,-137283.16274680648,77211.62017722371,61563.16388406324,0.056,1.022,-0.038,192.0,0.0,0.0,0.0,0.0,0.0,0.0,0.0,0.0,0.0,1696030299.493485,0.0,2023-09-29 18:31:39.493
52.0,31618.82240996628,52135.17572107026,45663.58574194738,8165.874560579606,59185.5194193744,50410.33630494313,-187500.02235174447,47161.84552453108,42392.542051379925,67909.15941109174,55759.7122501984,12511.99245595842,70057.76555034705,-137184.30098108065,77203.79706666435,61573.57979697941,0.056,1.022,-0.038,192.0,0.0,0.0,0.0,0.0,0.0,0.0,0.0,0.0,0.0,1696030299.493488,0.0,2023-09-29 18:31:39.493
54.0,31596.87299691117,52114.25448826009,45682.56237298994,8161.359508199634,59189.40862290962,50428.44121795192,-187500.02235174447,47182.319722452135,42394.710170592094,67908.73472794709,55772.25157883782,12507.030368689344,70071.53422493151,-137309.4707500304,77184.55221468833,61536.63236339478,0.056,1.022,-0.038,192.0,0.0,0.0,0.0,0.0,0.0,0.0,0.0,0.0,0.0,1696030299.493491,0.0,2023-09-29 18:31:39.493
56.0,31598.48232251195,52114.478005704645,45654.71209939863,8161.001880288349,59187.75459381993,50417.10888351308,-187500.02235174447,47157.5316378512,42384.003684998,67902.8785708998,55750.50333148281,12497.866153462668,70051.35059968836,-137183.71983572483,77193.470560726,61573.08805860139,0.056,1.014,-0.04,192.0,0.5,96.0,15.5,88.0,127.0,96.0,0.0,0.0,0.0,1696030299.493495,0.0,2023-09-29 18:31:39.493
