Sample Index,EXG Channel 0,EXG Channel 1,EXG Channel 2,EXG Channel 3,EXG Channel 4,EXG Channel 5,EXG Channel 6,EXG Channel 7,EXG Channel 8,EXG Channel 9,EXG Channel 10,EXG Channel 11,EXG Channel 12,EXG Channel 13,EXG Channel 14,EXG Channel 15,Accel Channel 0,Accel Channel 1,Accel Channel 2,Other,Other.1,Other.2,Other.3,Other.4,Other.5,Other.6,Analog Channel 0,Analog Channel 1,Analog Channel 2,Timestamp,Other.7,Timestamp (Formatted)
208.0,-55460.623557641935,-26230.86735378115,-44716.22940495365,-28579.45455067808,-9890.043424373082,-13063.96878528223,-187500.02235174447,-11450.441056542524,-24187.649689632617,8168.243845491868,-20503.746927231183,-25764.29704002107,6933.153502124966,-12598.806631422834,-20732.829956153622,-36739.29414025476,0.0,0.0,0.0,192.0,0.0,0.0,0.0,0.0,0.0,0.0,0.0,0.0,0.0,1696032226.682136,0.0,2023-09-29 19:03:46.682
210.0,-55455.28149071711,-26097.3603841496,-44710.37324790636,-28549.07852996332,-9883.33790103649,-13051.764732809632,-187500.02235174447,-11442.282669816335,-24169.433017901545,8202.509069741855,-20459.62458367641,-25759.96080159674,6946.139865653499,-12593.196343564552,-20725.20801129437,-36722.73149761337,0.0,0.0,0.0,192.0,0.0,0.0,0.0,0.0,0.0,0.0,0.0,0.0,0.0,1696032226.682143,0.0,2023-09-29 19:03:46.682
212.0,-55450.29705170358,-26251.22979297993,-44711.87081478487,-28585.04248679191,-9889.059947617048,-13059.498436391168,-187500.02235174447,-11451.55864376529,-24168.606003356697,8184.739432899885,-20485.53025550011,-25749.835461358485,6957.762772770259,-12599.521887245404,-20726.05737758367,-36738.37771873209,0.0,0.0,0.0,192.0,0.0,0.0,0.0,0.0,0.0,0.0,0.0,0.0,0.0,1696032226.682147,0.0,2023-09-29 19:03:46.682
214.0,-55469.83247635752,-26094.566416092686,-44716.16234972028,-28546.396320628683,-9889.81990692853,-13060.548968380568,-187500.02235174447,-11463.673289260065,-24160.58172709724,8223.25148859638,-20457.054133064048,-25756.742150395174,6950.274938377731,-12579.315910257808,-20726.549115961687,-36728.27473023829,0.112,1.0,0.166,192.0,1.5,64.0,15.5,32.0,2.5,24.0,0.0,0.0,0.0,1696032226.68215,0.0,2023-09-29 19:03:46.682
216.0,-55472.33587173651,-26197.04916442027,-44724.63366086884,-28593.78201887393,-9901.733386723208,-13073.311814464549,-187500.02235174447,-11476.190266155038,-24181.21238722949,8188.919209113027,-20457.031781319594,-25764.699371421262,6939.523749294728,-12598.940741889566,-20738.596706223096,-36751.36408226062,0.112,1.0,0.166,192.0,0.0,0.0,0.0,0.0,0.0,0.0,0.0,0.0,0.0,1696032226.682153,0.0,2023-09-29 19:03:46.682
218.0,-55468.87135134594,-26090.11841894608,-44715.46944564217,-28554.84528003279,-9889.551685995066,-13058.5820148685,-187500.02235174447,-11462.958033437497,-24170.68471559104,8189.343892257678,-20476.4330955068,-25770.779045913107,6939.635508017005,-12594.78331742088,-20733.72402593184,-36741.305797255736,0.112,1.0,0.166,192.0,0.0,0.0,0.0,0.0,0.0,0.0,0.0,0.0,0.0,1696032226.682156,0.0,2023-09-29 19:03:46.682
220.0,-55453.91803430535,-26216.204609418462,-44710.66382058428,-28591.099809539297,-9891.540991251588,-13064.706392849255,-187500.02235174447,-11466.668423017076,-24184.54279715333,8182.861886365639,-20472.208615804742,-25762.26303127564,6944.687002263904,-12593.911599387122,-20732.62879045353,-36750.06768108221,0.112,1.0,0.166,192.0,0.0,0.0,0.0,0.0,0.0,0.0,0.0,0.0,0.0,1696032226.68216,0.0,2023-09-29 19:03:46.682
222.0,-55461.741144864696,-26138.420538714,-44698.3480093894,-28546.93276249561,-9875.872418388415,-13056.324488678514,-187500.02235174447,-11461.996908425916,-24171.31056443579,8193.300151026267,-20510.36304358996,-25761.86069987544,6955.013508202256,-12588.278959784384,-20718.5918949356,-36736.16489603101,0.112,1.0,0.166,192.0,0.0,0.0,0.0,0.0,0.0,0.0,0.0,0.0,0.0,1696032226.682163,0.0,2023-09-29 19:03:46.682
224.0,-55451.459342415255,-26198.83730397669,-44707.13224496034,-28591.23392000603,-9891.362177295943,-13071.858951074952,-187500.02235174447,-11467.31662360628,-24179.379544184158,8192.271970781323,-20453.746074884664,-25770.04143834608,6958.589787315105,-12599.790108178868,-20721.25175252578,-36737.46129720942,0.108,1.006,0.168,192.0,1.5,48.0,15.5,56.0,2.5,32.0,0.0,0.0,0.0,1696032226.682166,0.0,2023-09-29 19:03:46.682
0.0,-27651.14189996027,-13026.753130764144,-22349.73279830609,-14274.15928532592,-4977.755841941338,-6524.6753722042295,-93750.01117587223,-5730.696705662812,-12090.237389831233,4094.034921411863,-10277.130934850087,-12883.947835439189,3483.9217047598013,-6294.050072914371,-10359.497113167896,-18373.06688702904,0.108,1.008,0.166,192.0,1.5,48.0,15.5,64.0,2.5,24.0,0.0,0.0,0.0,1696032226.797709,0.0,2023-09-29 19:03:46.797
2.0,-55295.10888995039,-26129.79276535425,-44711.71435257368,-28598.31942299836,-9975.605902147998,-13065.645166116376,-187500.02235174447,-11479.274806889867,-24088.072668084227,8253.828675011238,-20403.164077182304,-25824.6467500504,6978.281674180231,-12470.306452549274,-20738.14967133399,-36779.54963201877,0.108,1.008,0.166,192.0,0.0,0.0,0.0,0.0,0.0,0.0,0.0,0.0,0.0,1696032226.856572,0.0,2023-09-29 19:03:46.856
4.0,-55298.43929987423,-26143.85201261664,-44699.21972742316,-28565.44000690461,-9954.25998619318,-13047.92023276332,-187500.02235174447,-11464.612062527189,-24084.362278504646,8223.05032289628,-20500.93060742982,-25824.53499132812,6983.824906805147,-12478.777763697835,-20737.05443585568,-36787.21628036693,0.108,1.008,0.166,192.0,0.0,0.0,0.0,0.0,0.0,0.0,0.0,0.0,0.0,1696032226.856581,0.0,2023-09-29 19:03:46.856
6.0,-55286.65993054628,-26121.433212927965,-44717.01171600958,-28595.056068307887,-9969.235654978234,-13054.849273544463,-187500.02235174447,-11476.950225466517,-24082.752952903866,8242.451637083488,-20414.876391276885,-25828.468898352254,6975.532409612229,-12467.579539725726,-20738.06026435617,-36771.34654180367,0.108,1.008,0.166,192.0,0.0,0.0,0.0,0.0,0.0,0.0,0.0,0.0,0.0,1696032226.856585,0.0,2023-09-29 19:03:46.856
8.0,-55294.41598587227,-26157.397169756558,-44713.99423050812,-28574.961850042564,-9959.73616358473,-13045.841520528977,-187500.02235174447,-11466.243739872423,-24089.05614484026,8229.644087510596,-20511.167706390348,-25835.129718199936,6968.75983104227,-12482.130525366132,-20743.737607447816,-36779.59433550768,0.108,1.008,0.16,192.0,1.5,48.0,15.5,64.0,2.5,0.0,0.0,0.0,0.0,1696032226.856589,0.0,2023-09-29 19:03:46.856
10.0,-55285.989378212624,-26103.28359643025,-44726.77942833656,-28598.408829976182,-9974.331852714044,-13060.191340469282,-187500.02235174447,-11481.219408657482,-24094.599377465176,8258.58959658022,-20409.757841796614,-25837.45429962329,6968.335147897619,-12468.138333337109,-20746.53157550473,-36763.858707411135,0.108,1.008,0.16,192.0,0.0,0.0,0.0,0.0,0.0,0.0,0.0,0.0,0.0,1696032226.856592,0.0,2023-09-29 19:03:46.856
12.0,-55310.24102094663,-26183.39224855808,-44708.920384516765,-28579.52160591145,-9958.17154147286,-13048.322564163514,-187500.02235174447,-11470.5576265523,-24088.49735122888,8224.10085488568,-20523.28235188512,-25831.68754955382,6974.817153789659,-12477.61547298616,-20745.05636037068,-36786.54572803328,0.108,1.008,0.16,192.0,0.0,0.0,0.0,0.0,0.0,0.0,0.0,0.0,0.0,1696032226.856595,0.0,2023-09-29 19:03:46.856
14.0,-55311.313904680486,-26079.568395563176,-44719.38100092185,-28595.167827030164,-9973.549541658109,-13067.05332601706,-187500.02235174447,-11481.778202268864,-24087.91620587304,8236.170796891547,-20415.94927501074,-25850.284200940638,6970.391508387507,-12480.968234654456,-20739.28961030121,-36763.23285856639,0.108,1.008,0.16,192.0,0.0,0.0,0.0,0.0,0.0,0.0,0.0,0.0,0.0,1696032226.856598,0.0,2023-09-29 19:03:46.856
16.0,-55301.792061542525,-26192.020021917822,-44710.529710117546,-28592.955004329087,-9961.278433952146,-13061.286575947594,-187500.02235174447,-11475.720879521476,-24098.39917402258,8201.86086915265,-20521.98595070672,-25848.764282317672,6971.419688632452,-12496.078013906244,-20745.704560959883,-36793.72063800343,0.108,1.008,0.16,192.0,0.0,0.0,0.0,0.0,0.0,0.0,0.0,0.0,0.0,1696032226.916926,0.0,2023-09-29 19:03:46.916
18.0,-55303.043759232016,-26075.567433305678,-44723.35961143489,-28591.166864772666,-9974.220093991767,-13068.416782428836,-187500.02235174447,-11484.974501725972,-24082.685897670497,8231.208709622468,-20428.667417605808,-25847.624343350453,6966.971691485845,-12478.531894508827,-20741.50243300229,-36773.53701276029,0.112,1.004,0.166,192.0,1.5,64.0,15.5,48.0,2.5,24.0,0.0,0.0,0.0,1696032226.91694,0.0,2023-09-29 19:03:46.916
20.0,-55291.26438990407,-26216.562237329752,-44716.4529223982,-28599.057030565386,-9958.439762406322,-13061.510093392146,-187500.02235174447,-11477.374908611167,-24096.3875170216,8207.091177355192,-20521.82948849553,-25849.63600035143,6962.009604216767,-12497.03913891782,-20749.37024705056,-36796.51460606034,0.112,1.004,0.166,192.0,0.0,0.0,0.0,0.0,0.0,0.0,0.0,0.0,0.0,1696032226.916944,0.0,2023-09-29 19:03:46.916
22.0,-55296.89702950681,-26071.991154192827,-44721.57147187847,-28582.226166990546,-9968.63215787794,-13067.075677761515,-187500.02235174447,-11482.918141236083,-24080.02604008032,8235.76846549135,-20440.89382182286,-25854.26281145368,6969.47508686484,-12488.254903346886,-20739.20020332339,-36769.80427143625,0.112,1.004,0.166,192.0,0.0,0.0,0.0,0.0,0.0,0.0,0.0,0.0,0.0,1696032226.916947,0.0,2023-09-29 19:03:46.916
24.0,-55288.40336661379,-26248.43582492302,-44701.231384424136,-28595.63721366373,-9958.238596706224,-13052.6811543323,-187500.02235174447,-11466.154332894605,-24079.71311565794,8186.728738156407,-20522.589447807008,-25845.12094797146,6976.918217768457,-12492.635845260123,-20740.31779054616,-36789.49615830137,0.112,1.004,0.166,192.0,0.0,0.0,0.0,0.0,0.0,0.0,0.0,0.0,0.0,1696032226.91695,0.0,2023-09-29 19:03:46.916
26.0,-55299.62394233036,-26094.54406434823,-44703.1536344473,-28565.70822783807,-9964.362974686976,-13055.72099157822,-187500.02235174447,-11477.777240011364,-24073.2311097659,8241.691677772007,-20447.129958525893,-25842.88577352593,6976.3594241570745,-12464.338536779707,-20729.745415418794,-36756.16970731851,0.112,1.004,0.166,192.0,0.0,0.0,0.0,0.0,0.0,0.0,0.0,0.0,0.0,1696032226.916953,0.0,2023-09-29 19:03:46.916
28.0,-55302.01557898708,-26228.27455142433,-44701.74547454661,-28594.83255086333,-9966.30757645459,-13059.118456735428,-187500.02235174447,-11474.804457998807,-24095.09111584319,8202.933752886505,-20494.023918393126,-25842.528145614644,6971.911427010468,-12487.025557401845,-20740.250735312788,-36779.7284459744,0.112,1.006,0.17,192.0,1.5,64.0,15.5,56.0,2.5,40.0,0.0,0.0,0.0,1696032226.916956,0.0,2023-09-29 19:03:46.916
30.0,-55309.88339303534,-26058.69186624192,-44713.01075375209,-28564.769454570946,-9969.034489278138,-13060.370154424923,-187500.02235174447,-11480.012414456894,-24092.095982086183,8237.355439347677,-20445.61003990293,-25855.80508182109,6960.0426507047005,-12491.451202803995,-20734.886316643515,-36762.56230623273,0.112,1.006,0.17,192.0,0.0,0.0,0.0,0.0,0.0,0.0,0.0,0.0,0.0,1696032226.916959,0.0,2023-09-29 19:03:46.916
32.0,-55274.45587807368,-26238.28813294031,-44709.814454294974,-28594.27375725195,-9962.574835130554,-13054.15636946635,-187500.02235174447,-11472.79280099783,-24099.27089205633,8185.231171277902,-20496.57201726103,-25843.22104969276,6968.893941509002,-12488.389013813618,-20739.803700423683,-36787.23863211139,0.112,1.006,0.17,192.0,0.0,0.0,0.0,0.0,0.0,0.0,0.0,0.0,0.0,1696032226.975858,0.0,2023-09-29 19:03:46.975
34.0,-55308.40817790129,-26072.97463094886,-44720.29742244451,-28553.01243698745,-9970.241483478723,-13059.096104990973,-187500.02235174447,-11481.308815635302,-24071.24180450938,8231.543985789298,-20463.223214533715,-25840.672950824854,6962.23312166132,-12474.32976655123,-20727.80081365118,-36763.74694868886,0.112,1.006,0.17,192.0,0.0,0.0,0.0,0.0,0.0,0.0,0.0,0.0,0.0,1696032226.975867,0.0,2023-09-29 19:03:46.975
36.0,-55298.37224464086,-26206.883931980603,-44717.101122987406,-28598.654699165192,-9979.293939983125,-13070.45079117427,-187500.02235174447,-11491.300045406824,-24100.455534512465,8203.313732542245,-20464.89959536786,-25842.77401480365,6955.169970413444,-12495.966255183966,-20743.178813836435,-36792.42423682502,0.112,1.006,0.17,192.0,0.0,0.0,0.0,0.0,0.0,0.0,0.0,0.0,0.0,1696032226.97587,0.0,2023-09-29 19:03:46.975
38.0,-55297.20995392918,-26105.31760517569,-44704.382980392336,-28549.614971830248,-9968.63215787794,-13049.68602057529,-187500.02235174447,-11480.302987134814,-24086.2845285278,8238.67419227054,-20475.449618750765,-25840.516488613663,6963.685985050915,-12479.493019520403,-20736.987380622315,-36773.64877148256,0.114,1.004,0.172,192.0,1.5,72.0,15.5,48.0,2.5,48.0,0.0,0.0,0.0,1696032226.975874,0.0,2023-09-29 19:03:46.975
40.0,-55292.51608759357,-26210.46021109345,-44711.6025938514,-28591.79271361741,-9987.206457520302,-13067.835637072998,-187500.02235174447,-11490.964769239996,-24093.41473500904,8207.113529099648,-20457.165891786324,-25839.13068045744,6959.930891982423,-12483.628092244637,-20743.044703369706,-36780.153129119055,0.114,1.004,0.172,192.0,0.0,0.0,0.0,0.0,0.0,0.0,0.0,0.0,0.0,1696032226.975877,0.0,2023-09-29 19:03:46.975
42.0,-55295.17594518375,-26095.43813412644,-44708.07101822746,-28556.27579167793,-9979.003367305204,-13062.784142826098,-187500.02235174447,-11489.288388405846,-24094.554673976265,8213.550831502776,-20477.461275751743,-25849.12191022896,6958.142752425999,-12504.594028543715,-20744.72108420385,-36776.241573839376,0.114,1.004,0.172,192.0,0.0,0.0,0.0,0.0,0.0,0.0,0.0,0.0,0.0,1696032226.97588,0.0,2023-09-29 19:03:46.975
44.0,-55299.40042488581,-26170.539995496278,-44715.11181773088,-28595.70426889709,-9992.347358745024,-13073.15535225336,-187500.02235174447,-11496.306836164811,-24088.51970297333,8200.519764485332,-20444.067769535515,-25848.808985806583,6957.85217974808,-12490.534781281329,-20751.895994174003,-36782.32124833122,0.114,1.004,0.172,192.0,0.0,0.0,0.0,0.0,0.0,0.0,0.0,0.0,0.0,1696032226.975884,0.0,2023-09-29 19:03:46.975
46.0,-55307.871736034365,-26101.40604989601,-44707.08754147143,-28558.71213182356,-9973.460134680288,-13061.219520714229,-187500.02235174447,-11489.221333172482,-24093.750011175875,8205.034816865304,-20495.275616082625,-25851.468843396768,6956.935758225412,-12497.7990982293,-20749.325543561645,-36779.57198376322,0.114,1.004,0.172,192.0,0.0,0.0,0.0,0.0,0.0,0.0,0.0,0.0,0.0,1696032227.036143,0.0,2023-09-29 19:03:47.036
48.0,-55290.28091314804,-26143.963771338917,-44711.021448495565,-28589.8481118498,-9980.83621035054,-13066.49453240568,-187500.02235174447,-11490.964769239996,-24090.71017392995,8226.067808397747,-20436.33406595398,-25844.137471215425,6958.030993703723,-12484.65627248958,-20742.99999988079,-36773.64877148256,0.124,1.012,0.168,192.0,1.5,112.0,15.5,80.0,2.5,32.0,0.0,0.0,0.0,1696032227.036156,0.0,2023-09-29 19:03:47.036
50.0,-55295.93590449523,-26141.728596893383,-44694.57056457646,-28553.213602687552,-9961.524303141154,-13050.244814186672,-187500.02235174447,-11475.586769054744,-24084.474037226923,8206.688845954997,-20517.806174493573,-25833.40863387688,6963.954205984379,-12484.52216202285,-20733.63461895402,-36769.29018131378,0.124,1.012,0.168,192.0,0.0,0.0,0.0,0.0,0.0,0.0,0.0,0.0,0.0,1696032227.03616,0.0,2023-09-29 19:03:47.036
52.0,-55286.79404101301,-26145.46133821742,-44701.38784663533,-28588.730524627037,-9980.523285928164,-13069.757887096152,-187500.02235174447,-11496.195077442537,-24088.00561285086,8219.585802505708,-20431.66255136282,-25840.516488613663,6970.413860131963,-12489.75247022539,-20735.42275851044,-36762.249381810354,0.124,1.012,0.168,192.0,0.0,0.0,0.0,0.0,0.0,0.0,0.0,0.0,0.0,1696032227.036163,0.0,2023-09-29 19:03:47.036
54.0,-55287.01755845756,-26186.633251504096,-44681.33833185892,-28558.26509693445,-9954.97524201575,-13051.384753153892,-187500.02235174447,-11482.94049298054,-24080.67424066952,8184.962950344438,-20528.82558451004,-25840.002398491197,6973.677214822437,-12501.66595002007,-20731.62296195304,-36770.96656214793,0.124,1.012,0.168,192.0,0.0,0.0,0.0,0.0,0.0,0.0,0.0,0.0,0.0,1696032227.036166,0.0,2023-09-29 19:03:47.036
56.0,-55298.43929987423,-26153.239745287865,-44695.48698609912,-28582.51673966846,-9980.992672561726,-13066.986270783696,-187500.02235174447,-11495.122193708685,-24083.35645000416,8225.754883975373,-20432.556621141037,-25844.383340404434,6970.100935709588,-12478.42013578655,-20730.930057874928,-36757.24259105237,0.124,1.012,0.168,192.0,0.0,0.0,0.0,0.0,0.0,0.0,0.0,0.0,0.0,1696032227.036169,0.0,2023-09-29 19:03:47.036
58.0,-55305.502451122105,-26200.84896097767,-44692.06716919746,-28566.42348366064,-9970.241483478723,-13060.213692213738,-187500.02235174447,-11491.098879706728,-24093.705307686963,8181.945464842972,-20526.992741464703,-25846.50675612769,6966.457601363373,-12489.23838010292,-20739.20020332339,-36776.599201750665,0.114,1.014,0.156,192.0,1.5,72.0,15.5,88.0,2.0,112.0,0.0,0.0,0.0,1696032227.036172,0.0,2023-09-29 19:03:47.036
60.0,-55298.70752080769,-26133.480803189374,-44704.293573414514,-28580.683896623123,-9983.02668130716,-13070.96488129674,-187500.02235174447,-11498.31849316579,-24089.05614484026,8220.278706583824,-20428.93563853927,-25849.479538140244,6967.821057775147,-12484.298644578295,-20741.01069462427,-36762.11527134362,0.114,1.014,0.156,192.0,0.0,0.0,0.0,0.0,0.0,0.0,0.0,0.0,0.0,1696032227.036176,0.0,2023-09-29 19:03:47.036
62.0,-55287.93397998023,-26224.005368233367,-44692.916535486765,-28572.480806408028,-9968.185122988836,-13069.579073140512,-187500.02235174447,-11487.768469782886,-24089.70434542946,8182.280741009801,-20530.658427555376,-25852.139395730424,6968.111630453066,-12505.063415177276,-20743.11175860307,-36781.29306808628,0.114,1.014,0.156,192.0,0.0,0.0,0.0,0.0,0.0,0.0,0.0,0.0,0.0,1696032227.096262,0.0,2023-09-29 19:03:47.096
64.0,-55279.10504092039,-26124.02601528478,-44696.895145999806,-28578.068742521853,-9979.562160916586,-13080.933759323809,-187500.02235174447,-11503.36998741269,-24075.265118511332,8239.188282393014,-20430.768481584608,-25848.58546836203,6965.496476351796,-12505.756319255392,-20738.015560867258,-36763.70224519995,0.114,1.014,0.156,192.0,0.0,0.0,0.0,0.0,0.0,0.0,0.0,0.0,0.0,1696032227.096271,0.0,2023-09-29 19:03:47.096
66.0,-55307.00001800061,-26210.28139713781,-44695.71050354368,-28579.83453033382,-9979.87508533896,-13090.50030595068,-187500.02235174447,-11513.5176793954,-24085.278700027317,8184.4935637108765,-20513.313473858056,-25844.964485760276,6962.076659450133,-12514.629961804148,-20748.78910169472,-36789.94319319048,0.114,1.014,0.156,192.0,0.0,0.0,0.0,0.0,0.0,0.0,0.0,0.0,0.0,1696032227.096275,0.0,2023-09-29 19:03:47.096
68.0,-55293.052529460496,-26082.809398509195,-44696.403407621794,-28572.41375117466,-9985.105393541502,-13088.30983499406,-187500.02235174447,-11516.646923619142,-24085.792790149782,8207.784081433307,-20414.965798254707,-25846.193831705317,6957.13692392551,-12493.462859804971,-20748.81145343917,-36777.96265816244,0.114,1.008,0.164,192.0,1.5,72.0,15.5,64.0,2.5,16.0,0.0,0.0,0.0,1696032227.096278,0.0,2023-09-29 19:03:47.096
70.0,-55269.560846037966,-26262.740941374417,-44676.353892845385,-28575.61005063177,-9967.134590999436,-13068.39443068438,-187500.02235174447,-11497.290312920846,-24084.5857959492,8184.515915455332,-20520.08605242801,-25833.945075743806,6972.291406666209,-12498.29083660732,-20741.86006091357,-36793.20654788095,0.114,1.008,0.164,192.0,0.0,0.0,0.0,0.0,0.0,0.0,0.0,0.0,0.0,1696032227.096281,0.0,2023-09-29 19:03:47.096
72.0,-55267.23626461461,-26121.94730305044,-44690.45784359668,-28555.940515511094,-9975.225922492256,-13074.20588424276,-187500.02235174447,-11500.687778078054,-24064.7821503618,8249.715954031462,-20436.646990376357,-25835.35323564449,6979.488668380817,-12480.320034065251,-20728.62782819603,-36756.77320441881,0.114,1.008,0.164,192.0,0.0,0.0,0.0,0.0,0.0,0.0,0.0,0.0,0.0,1696032227.096285,0.0,2023-09-29 19:03:47.096
74.0,-55280.2449798876,-26268.887671099623,-44683.77467200455,-28577.733466355025,-9978.511628927186,-13072.641262130888,-187500.02235174447,-11498.497307121434,-24085.81514189424,8207.269991310834,-20500.2377033517,-25834.615628077463,6972.984310744323,-12506.918609967068,-20742.44120626941,-36783.88587044309,0.114,1.008,0.164,192.0,0.0,0.0,0.0,0.0,0.0,0.0,0.0,0.0,0.0,1696032227.096288,0.0,2023-09-29 19:03:47.096
76.0,-55284.91649447876,-26118.54983789323,-44686.45688133918,-28543.60235257177,-9983.585474918542,-13072.708317364257,-187500.02235174447,-11499.279618177368,-24066.4808829404,8224.346724074689,-20443.5760311575,-25834.079186210536,6974.683043322926,-12481.683490477026,-20738.552002734184,-36759.65657945354,0.114,1.008,0.164,192.0,0.0,0.0,0.0,0.0,0.0,0.0,0.0,0.0,0.0,1696032227.156771,0.0,2023-09-29 19:03:47.156
78.0,-55277.2498461306,-26271.256956011886,-44681.31598011446,-28566.93757378311,-9979.137477771936,-13070.96488129674,-187500.02235174447,-11495.166897197592,-24079.511949957843,8202.91140114205,-20481.90927289835,-25829.944113486305,6971.553799099183,-12494.871019705655,-20743.223517325347,-36780.60016400816,0.12,1.01,0.162,192.0,1.5,96.0,15.5,72.0,2.5,8.0,0.0,0.0,0.0,1696032227.156784,0.0,2023-09-29 19:03:47.156
80.0,-55284.51416307857,-26107.038689498742,-44688.17796566224,-28532.493535577483,-9981.372652217467,-13069.02027952913,-187500.02235174447,-11500.03957748885,-24060.602374148653,8240.574090549242,-20444.35834221344,-25832.35810188748,6965.943511240901,-12480.409441043072,-20734.461633498864,-36756.34852127416,0.12,1.01,0.162,192.0,0.0,0.0,0.0,0.0,0.0,0.0,0.0,0.0,0.0,1696032227.156788,0.0,2023-09-29 19:03:47.156
82.0,-55275.1487821518,-26257.711798871973,-44691.37426511935,-28584.66250713617,-9988.92754184336,-13086.320529737535,-187500.02235174447,-11509.494365393444,-24077.321479001224,8232.974497434438,-20470.91221462634,-25835.24147692221,6959.66267104896,-12492.9487696825,-20742.463558013864,-36782.52241403132,0.12,1.01,0.162,192.0,0.0,0.0,0.0,0.0,0.0,0.0,0.0,0.0,0.0,1696032227.156791,0.0,2023-09-29 19:03:47.156
84.0,-55297.32171265146,-26120.203866982924,-44693.92236398725,-28546.06104446185,-9984.993634819226,-13085.11353553695,-187500.02235174447,-11507.32624618128,-24085.18929304949,8222.96091591846,-20477.125999584918,-25845.05389273809,6973.0960694666,-12491.384147570629,-20737.3450085336,-36774.341675560674,0.12,1.01,0.162,192.0,0.0,0.0,0.0,0.0,0.0,0.0,0.0,0.0,0.0,1696032227.156794,0.0,2023-09-29 19:03:47.156
86.0,-55297.7016923072,-26245.597153377195,-44697.99038147812,-28596.307765997382,-9989.106355799004,-13096.490573464702,-187500.02235174447,-11512.534202639366,-24106.110525859654,8194.462441737944,-20471.158083815342,-25859.426064422856,6960.422630360441,-12526.901069510111,-20747.33623830512,-36792.58069903621,0.12,1.01,0.162,192.0,0.0,0.0,0.0,0.0,0.0,0.0,0.0,0.0,0.0,1696032227.156797,0.0,2023-09-29 19:03:47.156
88.0,-55290.14680268131,-26140.45454745943,-44693.56473607597,-28552.006608486965,-9985.39596621942,-13091.886114106908,-187500.02235174447,-11510.768414827397,-24080.85305462516,8202.889049397594,-20498.87424693993,-25858.733160344746,6962.926025739435,-12509.556115812791,-20738.999037623293,-36777.87325118462,0.122,1.008,0.16,192.0,1.5,104.0,15.5,64.0,2.5,0.0,0.0,0.0,0.0,1696032227.156801,0.0,2023-09-29 19:03:47.156
90.0,-55295.04183471702,-26218.506839097365,-44688.96027671818,-28576.951155299088,-9986.357091231,-13081.02316630163,-187500.02235174447,-11502.297103678837,-24095.42639201002,8213.796700691784,-20459.80339763205,-25849.34542767351,6952.197188400887,-12501.911819209075,-20743.20116558089,-36779.75079771886,0.122,1.008,0.16,192.0,0.0,0.0,0.0,0.0,0.0,0.0,0.0,0.0,0.0,1696032227.156804,0.0,2023-09-29 19:03:47.156
92.0,-55299.82510803045,-26143.226163771888,-44684.802852249486,-28535.68983503459,-9974.801239347606,-13066.047497516573,-187500.02235174447,-11487.477897104967,-24092.40890650856,8221.932735673516,-20503.3892993199,-25839.264790924168,6963.060136206167,-12492.054699904287,-20726.973799106338,-36757.35434977464,0.122,1.008,0.16,192.0,0.0,0.0,0.0,0.0,0.0,0.0,0.0,0.0,0.0,1696032227.217183,0.0,2023-09-29 19:03:47.217
94.0,-55286.92815147974,-26192.020021917822,-44694.43645410973,-28576.03473377642,-9992.414413978388,-13082.923064580327,-187500.02235174447,-11500.08428097776,-24099.42735426752,8232.326296845235,-20448.91809808232,-25840.20356419129,6960.0426507047005,-12501.867115720168,-20736.272124799743,-36762.15997483253,0.122,1.008,0.16,192.0,0.0,0.0,0.0,0.0,0.0,0.0,0.0,0.0,0.0,1696032227.217193,0.0,2023-09-29 19:03:47.217
96.0,-55290.03504395903,-26149.596410941653,-44682.99236094861,-28536.785070512906,-9972.722527113265,-13072.328337708514,-187500.02235174447,-11493.401109385624,-24094.42056350953,8212.120319857637,-20513.715805258253,-25837.431947878835,6969.542142098206,-12507.008016944888,-20732.002941608785,-36765.199812078456,0.122,1.008,0.16,192.0,0.0,0.0,0.0,0.0,0.0,0.0,0.0,0.0,0.0,1696032227.217197,0.0,2023-09-29 19:03:47.217
98.0,-55276.60164554139,-26176.686725221483,-44690.21197440767,-28576.302954709885,-9979.964492316782,-13082.565436669043,-187500.02235174447,-11503.682911835063,-24095.42639201002,8217.507090271365,-20436.6246386319,-25843.26575318167,6964.982386229323,-12497.419118573562,-20731.846479397595,-36766.4291580235,0.116,1.004,0.166,192.0,1.5,80.0,15.5,48.0,2.5,24.0,0.0,0.0,0.0,1696032227.217209,0.0,2023-09-29 19:03:47.217
100.0,-55289.09627069191,-26178.09488512217,-44680.37720684734,-28541.523640337426,-9962.328965941544,-13065.086372504997,-187500.02235174447,-11490.763603539895,-24084.362278504646,8205.504203498866,-20526.63511355342,-25838.996569990704,6970.883246765524,-12494.200467371997,-20721.36351124805,-36764.84218416717,0.116,1.004,0.166,192.0,0.0,0.0,0.0,0.0,0.0,0.0,0.0,0.0,0.0,1696032227.217212,0.0,2023-09-29 19:03:47.217
102.0,-55275.08172691843,-26170.89762340756,-44683.685265026725,-28568.479844150526,-9970.06266952308,-13076.575169155023,-187500.02235174447,-11499.391376899646,-24084.3846302491,8240.10470391568,-20431.684903107274,-25838.84010777952,6967.150505441488,-12492.881714449137,-20720.268275769744,-36753.28633228378,0.116,1.004,0.166,192.0,0.0,0.0,0.0,0.0,0.0,0.0,0.0,0.0,0.0,1696032227.217215,0.0,2023-09-29 19:03:47.217
104.0,-55283.977721211646,-26223.11129845516,-44667.36849157435,-28542.12713743772,-9958.30565193959,-13066.136904494397,-187500.02235174447,-11492.238818673948,-24081.992993592383,8215.540136759299,-20531.597200822496,-25823.953845972283,6982.394395160008,-12498.134374396132,-20710.992301820792,-36759.09778584216,0.116,1.004,0.166,192.0,0.0,0.0,0.0,0.0,0.0,0.0,0.0,0.0,0.0,1696032227.217218,0.0,2023-09-29 19:03:47.217
106.0,-55276.691052519214,-26161.42048375851,-44683.32763711544,-28565.596469115797,-9983.272550496167,-13088.10866929396,-187500.02235174447,-11509.337903182255,-24082.820008137227,8232.885090456617,-20424.24177220366,-25833.63215132143,6975.152429956488,-12508.013845445375,-20718.234267024312,-36749.888867126574,0.116,1.004,0.166,192.0,0.0,0.0,0.0,0.0,0.0,0.0,0.0,0.0,0.0,1696032227.276402,0.0,2023-09-29 19:03:47.276
108.0,-55273.45004957319,-26234.465984638453,-44677.42677657924,-28546.21750667304,-9974.912998069884,-13075.122305765428,-187500.02235174447,-11503.146469968136,-24090.39724950758,8194.931828371506,-20524.511697830167,-25834.123889699447,6972.805496788681,-12508.729101267949,-20732.22645905333,-36775.88394592809,0.12,1.008,0.174,192.0,1.5,96.0,15.5,64.0,2.5,56.0,0.0,0.0,0.0,1696032227.276414,0.0,2023-09-29 19:03:47.276
110.0,-55278.07686067544,-26142.51090794932,-44687.28389588403,-28552.05131197588,-9990.469812210777,-13078.586826156,-187500.02235174447,-11507.79563281484,-24081.501255214367,8245.513826073864,-20417.826821544983,-25829.2959128971,6969.251569420287,-12487.249074846395,-20731.846479397595,-36754.426271251,0.12,1.008,0.174,192.0,0.0,0.0,0.0,0.0,0.0,0.0,0.0,0.0,0.0,1696032227.276417,0.0,2023-09-29 19:03:47.276
112.0,-55279.50737232058,-26240.88093529713,-44675.83980272291,-28542.752986282467,-9977.997538804717,-13064.907558549352,-187500.02235174447,-11494.51869660839,-24084.362278504646,8216.881241426616,-20513.939322702805,-25825.183191917324,6970.592674087606,-12490.914760937068,-20733.72402593184,-36767.39028303508,0.12,1.008,0.174,192.0,0.0,0.0,0.0,0.0,0.0,0.0,0.0,0.0,0.0,1696032227.276421,0.0,2023-09-29 19:03:47.276
114.0,-55273.60651178438,-26147.718864407405,-44671.03417766502,-28539.579038569813,-9979.629216149951,-13062.761791081644,-187500.02235174447,-11492.060004718303,-24066.123255029117,8259.885997758627,-20425.40406291533,-25823.43975584981,6983.757851571781,-12471.714612449958,-20720.00005483628,-36739.42825072149,0.12,1.008,0.174,192.0,0.0,0.0,0.0,0.0,0.0,0.0,0.0,0.0,0.0,1696032227.276424,0.0,2023-09-29 19:03:47.276
116.0,-55284.38005261184,-26254.82842383724,-44675.50452655608,-28557.1922132006,-9979.092774283024,-13067.6344713729,-187500.02235174447,-11489.780126783864,-24099.5391129898,8207.515860499843,-20515.68275877032,-25827.127793684936,6984.987197516823,-12490.199505114497,-20725.27506652773,-36758.31547478622,0.12,1.008,0.174,192.0,0.0,0.0,0.0,0.0,0.0,0.0,0.0,0.0,0.0,1696032227.276427,0.0,2023-09-29 19:03:47.276
118.0,-55277.22749438614,-26121.433212927965,-44693.94471573171,-28553.19125094309,-9985.105393541502,-13064.72874459371,-187500.02235174447,-11484.12513543667,-24095.11346758765,8247.994869708404,-20431.34962694045,-25845.858555538485,6995.246648221809,-12477.682528219526,-20727.107909573067,-36745.88790486907,0.118,1.008,0.168,192.0,1.5,88.0,15.5,64.0,2.5,32.0,0.0,0.0,0.0,1696032227.27643,0.0,2023-09-29 19:03:47.276
120.0,-55286.41406135728,-26269.133540288636,-44704.96412574818,-28568.07751275033,-9974.845942836517,-13059.386677668892,-187500.02235174447,-11468.300100362314,-24107.026947382325,8230.538157288809,-20521.31539837305,-25842.416386892368,7006.869555338569,-12471.625205472135,-20731.53355497522,-36765.91506790103,0.118,1.008,0.168,192.0,0.0,0.0,0.0,0.0,0.0,0.0,0.0,0.0,0.0,1696032227.276434,0.0,2023-09-29 19:03:47.276
122.0,-55291.24203815962,-26112.224294212378,-44716.0058875091,-28548.072701462832,-9976.678785881852,-13052.614099098932,-187500.02235174447,-11466.3554985947,-24095.649909454576,8257.226140168446,-20444.648914891357,-25849.99362826272,7008.076549539155,-12456.202501797976,-20732.897011386995,-36745.26205602432,0.118,1.008,0.168,192.0,0.0,0.0,0.0,0.0,0.0,0.0,0.0,0.0,0.0,1696032227.336164,0.0,2023-09-29 19:03:47.336
124.0,-55282.18958165522,-26269.29000249982,-44715.38003866435,-28576.61587913226,-9969.816800334072,-13044.366305394926,-187500.02235174447,-11459.717030491476,-24098.30976704476,8232.795683478795,-20505.6915289988,-25838.326017657044,7021.4428927234285,-12459.644670444091,-20735.400406765988,-36768.99960863586,0.118,1.008,0.168,192.0,0.0,0.0,0.0,0.0,0.0,0.0,0.0,0.0,0.0,1696032227.336173,0.0,2023-09-29 19:03:47.336
126.0,-55293.27604690505,-26110.6149686116,-44726.98059403665,-28552.1407189537,-9971.046146279115,-13041.281764660092,-187500.02235174447,-11465.729649749954,-24082.32826975921,8248.06192494177,-20451.935583583785,-25847.71375032828,7022.649886924016,-12457.677716932025,-20734.372226521045,-36752.682835183485,0.118,1.008,0.168,192.0,0.0,0.0,0.0,0.0,0.0,0.0,0.0,0.0,0.0,1696032227.336177,0.0,2023-09-29 19:03:47.336
128.0,-55282.36839561086,-26263.52325243035,-44729.30517546,-28599.012327076474,-9971.44847767931,-13041.170005937816,-187500.02235174447,-11460.924024692062,-24094.53232223181,8214.646066981086,-20481.75281068716,-25846.10442472749,7020.548822945217,-12480.65531023208,-20750.44313078441,-36783.79646346528,0.122,1.008,0.168,192.0,1.5,104.0,15.5,64.0,2.5,32.0,0.0,0.0,0.0,1696032227.33618,0.0,2023-09-29 19:03:47.336
130.0,-55279.08268917593,-26119.44390767144,-44722.01850676758,-28557.46043413406,-9965.659375865383,-13032.09519768896,-187500.02235174447,-11462.086315403738,-24082.57413894822,8260.802419281295,-20464.13963605638,-25840.53884035812,7028.81896839368,-12475.13442935162,-20734.886316643515,-36762.65171321055,0.122,1.008,0.168,192.0,0.0,0.0,0.0,0.0,0.0,0.0,0.0,0.0,0.0,1696032227.336183,0.0,2023-09-29 19:03:47.336
132.0,-55273.96413969567,-26229.548600858285,-44722.30907944549,-28602.27568176695,-9973.437782935833,-13039.67243905931,-187500.02235174447,-11469.820018985274,-24097.616862966643,8228.951183432482,-20455.556566185543,-25836.046139722603,7022.895756113024,-12474.32976655123,-20745.95043014889,-36778.00736165135,0.122,1.008,0.168,192.0,0.0,0.0,0.0,0.0,0.0,0.0,0.0,0.0,0.0,1696032227.336186,0.0,2023-09-29 19:03:47.336
134.0,-55278.52389556455,-26119.287445460257,-44704.517090859066,-28554.97939049952,-9956.964547272271,-13026.23904064167,-187500.02235174447,-11457.303042090303,-24076.06978131173,8257.53906459082,-20466.5312727131,-25823.998549461197,7026.58379394815,-12468.026574614832,-20736.450938755388,-36763.79165217777,0.122,1.008,0.168,192.0,0.0,0.0,0.0,0.0,0.0,0.0,0.0,0.0,0.0,1696032227.33619,0.0,2023-09-29 19:03:47.336
136.0,-55277.94275020871,-26199.03846967679,-44709.16625370577,-28594.58668167433,-9972.342547457523,-13036.543194835567,-187500.02235174447,-11468.74713525142,-24085.904548872066,8261.49532335941,-20433.361283941424,-25822.50098258269,7029.400113749518,-12467.80305717028,-20740.31779054616,-36767.45733826844,0.122,1.008,0.168,192.0,0.0,0.0,0.0,0.0,0.0,0.0,0.0,0.0,0.0,1696032227.396338,0.0,2023-09-29 19:03:47.396
138.0,-55286.34700612391,-26106.59165460964,-44701.58901233543,-28549.994951485987,-9954.908186782382,-13018.43828182677,-187500.02235174447,-11454.285556588837,-24085.16694130504,8246.854930741183,-20466.106589568448,-25826.278427395635,7025.287392769742,-12462.75156292338,-20729.41013925197,-36757.26494279682,0.122,1.002,0.162,192.0,1.5,104.0,15.5,40.0,2.5,8.0,0.0,0.0,0.0,1696032227.396348,0.0,2023-09-29 19:03:47.396
140.0,-55265.76104948057,-26203.888798223597,-44708.160425205286,-28590.652774650192,-9962.77600083065,-13026.887241230876,-187500.02235174447,-11457.750076979408,-24084.921072116027,8248.643070297609,-20432.131937996382,-25825.54081982861,7025.220337536376,-12474.486228762416,-20730.05833984117,-36759.14248933107,0.122,1.002,0.162,192.0,0.0,0.0,0.0,0.0,0.0,0.0,0.0,0.0,0.0,1696032227.396352,0.0,2023-09-29 19:03:47.396
142.0,-55278.47919207564,-26141.728596893383,-44711.04380024002,-28556.7898818004,-9953.902358281894,-13019.712331260722,-187500.02235174447,-11455.917233934071,-24067.486711440888,8249.268919142356,-20484.703240955263,-25828.62536056344,7024.907413114001,-12454.593176197191,-20725.09625257209,-36751.85582063864,0.122,1.002,0.162,192.0,0.0,0.0,0.0,0.0,0.0,0.0,0.0,0.0,0.0,1696032227.396355,0.0,2023-09-29 19:03:47.396
144.0,-55285.11766017886,-26179.65950723404,-44722.51024514559,-28601.60512943329,-9975.225922492256,-13040.834729770986,-187500.02235174447,-11470.714088763489,-24088.810275651253,8262.009413481881,-20426.208725715725,-25835.330883900035,7009.372950717563,-12455.196673297489,-20736.965028877858,-36763.25521031085,0.122,1.002,0.162,192.0,0.0,0.0,0.0,0.0,0.0,0.0,0.0,0.0,0.0,1696032227.396358,0.0,2023-09-29 19:03:47.396
146.0,-55286.32465437945,-26171.165844341023,-44705.34410540392,-28567.65282960568,-9956.897492038905,-13024.830880740989,-187500.02235174447,-11462.26512935938,-24081.501255214367,8236.595480036198,-20497.10845912796,-25828.26773265216,7019.610049678094,-12458.37062101014,-20734.551040476686,-36771.12302435911,0.122,1.002,0.162,192.0,0.0,0.0,0.0,0.0,0.0,0.0,0.0,0.0,0.0,1696032227.396362,0.0,2023-09-29 19:03:47.396
148.0,-55283.95536946719,-26176.91024266604,-44719.13513173284,-28599.61582417677,-9973.124858513458,-13041.706447804743,-187500.02235174447,-11476.547894066322,-24081.747124403373,8246.765523763363,-20418.20680120073,-25833.676854810343,7012.43513970794,-12465.478475746928,-20736.2944765442,-36765.24451556736,0.122,1.004,0.178,192.0,1.5,104.0,15.5,48.0,2.5,72.0,0.0,0.0,0.0,1696032227.396365,0.0,2023-09-29 19:03:47.396
150.0,-55276.959273452674,-26191.23771086189,-44708.36159090538,-28566.17761447163,-9957.791561817116,-13031.759921522133,-187500.02235174447,-11469.484742818446,-24080.51777845833,8244.77621850684,-20501.57880801902,-25828.40184311889,7008.814157106181,-12470.12763859363,-20739.803700423683,-36777.5826785067,0.122,1.004,0.178,192.0,0.0,0.0,0.0,0.0,0.0,0.0,0.0,0.0,0.0,1696032227.396368,0.0,2023-09-29 19:03:47.396
152.0,-55271.81837222796,-26146.80244288474,-44719.78333232205,-28590.45160895009,-9977.796373104617,-13040.879433259895,-187500.02235174447,-11477.754888266909,-24071.822949865214,8260.86947451466,-20405.846286516942,-25828.80417451909,7005.14847101551,-12461.075182089233,-20740.56365973516,-36761.60118122115,0.122,1.004,0.178,192.0,0.0,0.0,0.0,0.0,0.0,0.0,0.0,0.0,0.0,1696032227.456712,0.0,2023-09-29 19:03:47.456
154.0,-55286.36935786836,-26193.47288530742,-44705.008829237086,-28572.860786063768,-9961.367840929966,-13029.792968010064,-187500.02235174447,-11466.84723697272,-24083.512912215345,8213.215555335946,-20498.561322517555,-25837.25313392319,7011.317552485175,-12480.252978831886,-20741.994171380305,-36780.35429481915,0.122,1.004,0.178,192.0,0.0,0.0,0.0,0.0,0.0,0.0,0.0,0.0,0.0,1696032227.456721,0.0,2023-09-29 19:03:47.456
156.0,-55282.23428514413,-26156.14547206705,-44702.304268158,-28584.997783303,-9964.2512159647,-13031.96108722223,-187500.02235174447,-11463.002736926406,-24064.133949772597,8251.235872654423,-20419.726719823688,-25831.508735598178,7021.2640787677865,-12441.36094347965,-20728.985456107315,-36762.49525099937,0.122,1.004,0.178,192.0,0.0,0.0,0.0,0.0,0.0,0.0,0.0,0.0,0.0,1696032227.456725,0.0,2023-09-29 19:03:47.456
158.0,-55297.053491718,-26231.314388670253,-44701.96899199116,-28578.80635008888,-9956.271643194155,-13025.546136563557,-187500.02235174447,-11452.564472265778,-24086.99978435037,8213.52847975832,-20514.140488402903,-25840.58354384703,7015.944363587423,-12466.931339136523,-20730.10304333008,-36775.61572499463,0.118,1.008,0.178,192.0,1.5,88.0,15.5,64.0,2.5,72.0,0.0,0.0,0.0,1696032227.456728,0.0,2023-09-29 19:03:47.456
160.0,-55288.60453231389,-26141.46037595992,-44706.7522653046,-28577.66641112166,-9964.810009576084,-13024.987342952174,-187500.02235174447,-11450.575167009256,-24084.76460990484,8256.35442213469,-20421.60426635793,-25843.89160202642,7012.725712385859,-12454.816693641746,-20726.280895028223,-36754.359216017634,0.118,1.008,0.178,192.0,0.0,0.0,0.0,0.0,0.0,0.0,0.0,0.0,0.0,1696032227.456731,0.0,2023-09-29 19:03:47.456
162.0,-55296.71821555117,-26238.6457608516,-44716.60938460939,-28582.60614664628,-9970.599111390007,-13027.088406930972,-187500.02235174447,-11454.486722288932,-24091.492484985887,8222.62563975163,-20515.01220643666,-25842.796366548107,7011.786939118736,-12466.819580414243,-20732.829956153622,-36768.08318711319,0.118,1.008,0.178,192.0,0.0,0.0,0.0,0.0,0.0,0.0,0.0,0.0,0.0,1696032227.456734,0.0,2023-09-29 19:03:47.456
164.0,-55290.21385791467,-26110.100878489124,-44718.71044858819,-28564.47888189303,-9973.191913746825,-13024.316790618515,-187500.02235174447,-11453.659707744087,-24084.697554671475,8227.744189231895,-20427.102795493935,-25850.083035240536,7006.288409982731,-12457.588309954204,-20741.301267302188,-36753.44279449496,0.118,1.008,0.178,192.0,0.0,0.0,0.0,0.0,0.0,0.0,0.0,0.0,0.0,1696032227.456738,0.0,2023-09-29 19:03:47.456
166.0,-55292.2031631712,-26242.57966787573,-44703.98064899214,-28563.495405136997,-9964.765306087173,-13019.421758582805,-187500.02235174447,-11448.049419885803,-24084.63049943811,8210.667456468042,-20511.793555235097,-25830.05587220858,7007.562459416683,-12448.312336005252,-20736.160366077467,-36760.90827714304,0.118,1.008,0.178,192.0,0.0,0.0,0.0,0.0,0.0,0.0,0.0,0.0,0.0,1696032227.51736,0.0,2023-09-29 19:03:47.517
168.0,-55282.904837477785,-26100.668442328984,-44701.65606756879,-28538.394396113683,-9966.30757645459,-13017.767729493107,-187500.02235174447,-11451.804512954295,-24078.66258366854,8255.527407589841,-20430.835536817973,-25827.328959385035,7004.835546593135,-12434.610716654148,-20723.66574092695,-36737.79657337625,0.124,1.008,0.182,192.0,1.5,112.0,15.5,64.0,2.5,88.0,0.0,0.0,0.0,1696032227.517371,0.0,2023-09-29 19:03:47.517
170.0,-55279.64148278732,-26244.367807432154,-44701.34314314641,-28562.28841093641,-9969.235654978234,-13024.38384585188,-187500.02235174447,-11451.089257131727,-24084.13876106009,8231.365171833655,-20496.14733411638,-25821.741023271206,6999.6052383905935,-12448.625260427629,-20725.38682525001,-36757.75668117484,0.124,1.008,0.182,192.0,0.0,0.0,0.0,0.0,0.0,0.0,0.0,0.0,0.0,1696032227.517374,0.0,2023-09-29 19:03:47.517
172.0,-55279.5967792984,-26099.64026208404,-44696.0010762216,-28542.70828279356,-9967.82749507755,-13022.171023150806,-187500.02235174447,-11447.6023849967,-24073.47697895491,8275.73338457744,-20441.989057301173,-25829.474726852743,7000.81223259118,-12443.12673129162,-20725.833860139115,-36742.71395715642,0.124,1.008,0.182,192.0,0.0,0.0,0.0,0.0,0.0,0.0,0.0,0.0,0.0,1696032227.517378,0.0,2023-09-29 19:03:47.517
174.0,-55279.485020576125,-26257.95766806098,-44687.35095111739,-28577.264079721463,-9964.944120042815,-13020.651104527844,-187500.02235174447,-11446.060114629285,-24079.556653446754,8234.896747457595,-20489.44181077979,-25825.183191917324,7004.857898337591,-12456.537777964804,-20730.080691585623,-36763.165803333024,0.124,1.008,0.182,192.0,0.0,0.0,0.0,0.0,0.0,0.0,0.0,0.0,0.0,1696032227.517381,0.0,2023-09-29 19:03:47.517
176.0,-55301.52384060906,-26088.59850032312,-44692.98359072013,-28548.1397566962,-9967.626329377454,-13024.272087129604,-187500.02235174447,-11452.765637965877,-24078.12614180161,8248.06192494177,-20449.923926582807,-25836.314360656062,6999.068796523667,-12450.122827306132,-20724.58216244962,-36742.2222187784,0.124,1.008,0.182,192.0,0.0,0.0,0.0,0.0,0.0,0.0,0.0,0.0,0.0,1696032227.517384,0.0,2023-09-29 19:03:47.517
178.0,-55294.63950331682,-26235.24829569439,-44697.40923612228,-28596.46422820857,-9973.21426549128,-13035.269145401617,-187500.02235174447,-11457.191283368024,-24096.253406554868,8216.43420653751,-20478.265938552137,-25845.25505843819,6995.000779032801,-12453.587347696704,-20737.3450085336,-36767.23382082389,0.116,1.012,0.172,192.0,1.5,80.0,15.5,80.0,2.5,48.0,0.0,0.0,0.0,1696032227.517387,0.0,2023-09-29 19:03:47.517
180.0,-55304.094291221416,-26112.42545991248,-44698.59387857842,-28556.70047482258,-9968.028660777649,-13028.027180198096,-187500.02235174447,-11452.586824010234,-24085.792790149782,8251.034706954326,-20483.22802582121,-25851.82647130805,7001.080453524644,-12443.439655713995,-20730.14774681899,-36752.1240415721,0.116,1.012,0.172,192.0,0.0,0.0,0.0,0.0,0.0,0.0,0.0,0.0,0.0,1696032227.51739,0.0,2023-09-29 19:03:47.517
182.0,-55287.397538113306,-26227.98397874641,-44710.86498628437,-28599.32525149885,-9977.081117282049,-13040.544157093069,-187500.02235174447,-11462.443943315024,-24096.34281353269,8227.29715434279,-20480.81403742004,-25853.704017842298,6996.163069744476,-12452.425056985028,-20745.212822581867,-36770.54187900327,0.116,1.012,0.172,192.0,0.0,0.0,0.0,0.0,0.0,0.0,0.0,0.0,0.0,1696032227.576361,0.0,2023-09-29 19:03:47.576
184.0,-55301.07680571995,-26134.71014913442,-44699.51030010108,-28546.32926539532,-9951.354259413987,-13023.713293518222,-187500.02235174447,-11446.663611729577,-24079.534301702297,8230.895785200093,-20502.38347081941,-25848.630171850946,7005.260229737786,-12451.776856395823,-20730.52772647473,-36757.19788756346,0.116,1.012,0.172,192.0,0.0,0.0,0.0,0.0,0.0,0.0,0.0,0.0,0.0,1696032227.57637,0.0,2023-09-29 19:03:47.576
186.0,-55284.31299737848,-26246.625333622134,-44709.45682638369,-28589.445780449605,-9965.726431098752,-13037.481968102691,-187500.02235174447,-11454.5537775223,-24084.07170582673,8228.146520632092,-20472.29802278257,-25843.556325859587,7011.71988388537,-12461.23164430042,-20731.86883114205,-36764.21633532242,0.116,1.012,0.172,192.0,0.0,0.0,0.0,0.0,0.0,0.0,0.0,0.0,0.0,1696032227.576374,0.0,2023-09-29 19:03:47.576
188.0,-55299.802756286,-26142.08622480467,-44712.56371886298,-28546.32926539532,-9961.703117096797,-13031.96108722223,-187500.02235174447,-11452.69858273251,-24074.438103966488,8241.624622538642,-20501.86938069694,-25848.07137823956,7003.695607625915,-12446.188920281998,-20732.606438709077,-36756.259114296336,0.112,1.012,0.168,192.0,1.5,64.0,15.5,80.0,2.5,32.0,0.0,0.0,0.0,1696032227.576377,0.0,2023-09-29 19:03:47.576
190.0,-55287.28577939103,-26197.272681864823,-44712.51901537407,-28583.053181535382,-9977.036413793136,-13038.733665792188,-187500.02235174447,-11459.98525142494,-24082.507083714856,8250.274747642845,-20445.38652245838,-25844.94213401581,6996.028959277744,-12450.659269173058,-20740.63071496853,-36761.33296028769,0.112,1.012,0.168,192.0,0.0,0.0,0.0,0.0,0.0,0.0,0.0,0.0,0.0,1696032227.57638,0.0,2023-09-29 19:03:47.576
192.0,-55286.86109624638,-26143.80730912773,-44695.30817214349,-28542.55182058237,-9958.886797295429,-13017.834784726476,-187500.02235174447,-11446.462446029478,-24073.387571977088,8216.05422688177,-20501.824677208027,-25838.884811268428,7003.695607625915,-12448.89348136109,-20732.31586603116,-36751.02880609379,0.112,1.012,0.168,192.0,0.0,0.0,0.0,0.0,0.0,0.0,0.0,0.0,0.0,1696032227.576384,0.0,2023-09-29 19:03:47.576
194.0,-55278.81446824247,-26183.883986936093,-44693.40827386479,-28575.18536748712,-9962.68659385283,-13024.048569685052,-187500.02235174447,-11447.445922785511,-24080.51777845833,8247.81605575276,-20434.74709209765,-25831.754604787184,7010.937572829434,-12446.188920281998,-20727.4431857399,-36743.25039902335,0.112,1.012,0.168,192.0,0.0,0.0,0.0,0.0,0.0,0.0,0.0,0.0,0.0,1696032227.576387,0.0,2023-09-29 19:03:47.576
196.0,-55287.64340730231,-26166.65079196105,-44691.19545116371,-28541.545992081883,-9953.58943385952,-13017.790081237565,-187500.02235174447,-11445.769541951364,-24073.700496399462,8229.957011932971,-20507.658482510866,-25831.15110768689,7009.976447817857,-12453.743809907892,-20719.93299960292,-36744.88207636858,0.112,1.012,0.168,192.0,0.0,0.0,0.0,0.0,0.0,0.0,0.0,0.0,0.0,1696032227.636187,0.0,2023-09-29 19:03:47.636
198.0,-55284.31299737848,-26151.31749526471,-44697.18571867773,-28573.44193141961,-9969.101544511504,-13027.28957263107,-187500.02235174447,-11455.157274622594,-24065.944441073472,8243.457465583977,-20420.821955301995,-25833.16276468787,7003.807366348192,-12445.004277825868,-20725.699749672385,-36741.23874202237,0.114,1.008,0.174,192.0,1.5,72.0,15.5,64.0,2.5,56.0,0.0,0.0,0.0,1696032227.6362,0.0,2023-09-29 19:03:47.636
200.0,-55287.71046253568,-26183.2804898358,-44685.02636969404,-28547.670370062635,-9953.96941351526,-13010.19048812276,-187500.02235174447,-11439.26518431487,-24075.35452548916,8225.777235719828,-20514.05108142508,-25830.994645475705,7014.893831598024,-12451.866263373646,-20721.832897881617,-36754.26980903981,0.114,1.008,0.174,192.0,0.0,0.0,0.0,0.0,0.0,0.0,0.0,0.0,0.0,1696032227.636203,0.0,2023-09-29 19:03:47.636
202.0,-55274.67939551824,-26143.00264632733,-44693.40827386479,-28571.05029476289,-9965.927596798849,-13021.321656861504,-187500.02235174447,-11447.915309419071,-24070.12421728661,8256.600291323697,-20424.04060650356,-25831.821660020552,7013.664485652982,-12440.84685335718,-20719.41890948044,-36738.55653268773,0.114,1.008,0.174,192.0,0.0,0.0,0.0,0.0,0.0,0.0,0.0,0.0,0.0,1696032227.636206,0.0,2023-09-29 19:03:47.636
204.0,-55293.27604690505,-26227.872220024132,-44681.40538709228,-28558.823890545835,-9951.086038480526,-13016.493680059157,-187500.02235174447,-11441.992097138418,-24069.788941119783,8205.258334309858,-20528.40090136539,-25841.276447925145,7007.808328605692,-12461.768086167349,-20721.00588333677,-36758.82956490869,0.114,1.008,0.174,192.0,0.0,0.0,0.0,0.0,0.0,0.0,0.0,0.0,0.0,1696032227.636209,0.0,2023-09-29 19:03:47.636
206.0,-55293.47721260515,-26132.430271199977,-44700.69494255721,-28573.93366979762,-9968.475695666755,-13038.48779660318,-187500.02235174447,-11460.231120613947,-24058.94834505896,8244.485645828921,-20425.180545470783,-25848.87604103995,6996.230124977842,-12438.924603334022,-20722.01171183726,-36749.71005317093,0.114,1.008,0.174,192.0,0.0,0.0,0.0,0.0,0.0,0.0,0.0,0.0,0.0,1696032227.636212,0.0,2023-09-29 19:03:47.636
208.0,-55303.75901505459,-26231.560257859262,-44693.65414305379,-28565.37295167124,-9954.148227470903,-13023.847403984952,-187500.02235174447,-11441.433303527034,-24080.27190926932,8219.898726928082,-20525.562229819567,-25848.429006150844,7004.276752981753,-12458.8400076437,-20725.923267116937,-36771.23478308139,0.116,1.008,0.174,192.0,1.5,80.0,15.5,64.0,2.5,56.0,0.0,0.0,0.0,1696032227.636216,0.0,2023-09-29 19:03:47.636
210.0,-55298.19343068522,-26092.73357304735,-44705.72408505966,-28564.03184700392,-9967.514570655176,-13028.071883687006,-187500.02235174447,-11451.201015854003,-24073.946365588472,8240.10470391568,-20417.692711078253,-25854.1510527314,6998.845279079113,-12445.294850503786,-20722.503450215278,-36742.758660645326,0.116,1.008,0.174,192.0,0.0,0.0,0.0,0.0,0.0,0.0,0.0,0.0,0.0,1696032227.636219,0.0,2023-09-29 19:03:47.636
212.0,-55283.57538981145,-26244.457214409977,-44691.19545116371,-28569.23980346201,-9952.11421872547,-13018.415930082314,-187500.02235174447,-11439.443998270512,-24077.83556912369,8193.166040559536,-20523.841145496503,-25844.69626482681,6996.498345911306,-12457.565958209749,-20724.67156942744,-36767.50204175736,0.116,1.008,0.174,192.0,0.0,0.0,0.0,0.0,0.0,0.0,0.0,0.0,0.0,1696032227.696473,0.0,2023-09-29 19:03:47.696
214.0,-55287.15166892429,-26110.2126372114,-44694.07882619844,-28553.92885851012,-9966.285224710136,-13028.608325553934,-187500.02235174447,-11449.12230361966,-24058.03192353629,8258.500189602399,-20434.121243252903,-25845.478575882746,6990.686892352926,-12446.300679004276,-20718.14486004649,-36738.780050132285,0.116,1.008,0.174,192.0,0.0,0.0,0.0,0.0,0.0,0.0,0.0,0.0,0.0,1696032227.696481,0.0,2023-09-29 19:03:47.696
216.0,-55288.20220091369,-26239.271609696345,-44693.72119828716,-28571.18440522962,-9971.806105590596,-13031.089369188472,-187500.02235174447,-11456.543082778822,-24086.86567388364,8213.416721036045,-20516.57682854853,-25840.628247335942,6992.430328420441,-12465.120847835642,-20726.280895028223,-36765.266867311824,0.116,1.008,0.174,192.0,0.0,0.0,0.0,0.0,0.0,0.0,0.0,0.0,0.0,1696032227.696485,0.0,2023-09-29 19:03:47.696
218.0,-55291.66672130427,-26086.49743634432,-44691.08369244143,-28541.79186127089,-9969.548579400607,-13026.5743168085,-187500.02235174447,-11455.738419978432,-24080.562481947243,8235.142616646603,-20446.302943981045,-25843.958657259784,6986.730633584337,-12448.535853449805,-20721.989360092804,-36739.24943676584,0.118,1.008,0.166,192.0,1.5,88.0,15.5,64.0,2.5,24.0,0.0,0.0,0.0,1696032227.696488,0.0,2023-09-29 19:03:47.696
220.0,-55289.275084647554,-26223.58068508872,-44686.613343550365,-28566.065855749355,-9970.979091045749,-13034.95622097924,-187500.02235174447,-11460.946376436515,-24084.56344420474,8216.456558281965,-20503.43400280881,-25835.1967734333,6988.004683018289,-12460.717554177949,-20723.26340952676,-36754.31451252872,0.118,1.008,0.166,192.0,0.0,0.0,0.0,0.0,0.0,0.0,0.0,0.0,0.0,1696032227.696491,0.0,2023-09-29 19:03:47.696
222.0,-55283.91066597828,-26060.770578476266,-44690.56960231896,-28536.382739112705,-9966.799314832606,-13037.280802402593,-187500.02235174447,-11460.454638058502,-24070.97358357592,8246.318488874256,-20452.226156261702,-25841.231744436234,6985.121307983555,-12451.79920814028,-20714.501525700274,-36732.74507912935,0.118,1.008,0.166,192.0,0.0,0.0,0.0,0.0,0.0,0.0,0.0,0.0,0.0,1696032227.696494,0.0,2023-09-29 19:03:47.696
224.0,-55289.74447128111,-26193.71875449643,-44690.90487848579,-28581.08622802332,-9970.06266952308,-13050.91536652033,-187500.02235174447,-11465.528484049855,-24090.061973340747,8210.488642512399,-20488.16776134584,-25852.49702364171,6986.23889520632,-12477.9954526419,-20724.53745896071,-36758.360178275136,0.118,1.008,0.166,192.0,0.0,0.0,0.0,0.0,0.0,0.0,0.0,0.0,0.0,1696032227.696497,0.0,2023-09-29 19:03:47.696
226.0,-55286.65993054628,-26086.653898555505,-44674.47634631114,-28541.970675226534,-9956.182236216337,-13031.648162799856,-187500.02235174447,-11454.062039144284,-24074.97454583341,8247.950166219493,-20482.37865953191,-25845.12094797146,6998.465299423373,-12449.966365094944,-20711.39463322099,-36746.73727115837,0.118,1.008,0.166,192.0,0.0,0.0,0.0,0.0,0.0,0.0,0.0,0.0,0.0,1696032227.756713,0.0,2023-09-29 19:03:47.756
228.0,-55275.21583738516,-26236.969380017446,-44671.90589569878,-28585.28835598092,-9968.609806133489,-13045.416837384324,-187500.02235174447,-11463.31566134878,-24078.841397624183,8216.590668748697,-20488.19011309029,-25846.1491282164,7001.415729691474,-12464.159722824064,-20718.793060635693,-36763.45637601095,0.114,1.008,0.174,192.0,1.5,72.0,15.5,64.0,2.5,56.0,0.0,0.0,0.0,1696032227.756731,0.0,2023-09-29 19:03:47.756
230.0,-55274.61234028487,-26131.871477588596,-44673.60462827738,-28539.9366664811,-9959.467942651265,-13036.945526235764,-187500.02235174447,-11458.957071179995,-24058.72482761441,8239.992945193404,-20485.30673805556,-25842.371683403457,6998.867630823569,-12452.581519196216,-20711.461688454357,-36750.157088060034,0.114,1.008,0.174,192.0,0.0,0.0,0.0,0.0,0.0,0.0,0.0,0.0,0.0,1696032227.756735,0.0,2023-09-29 19:03:47.756
232.0,-55261.804790711976,-26270.00525832239,-44682.433567337226,-28582.18146350163,-9971.78375384614,-13047.33908740748,-187500.02235174447,-11466.534312550344,-24065.318592228723,8219.541099016798,-20473.661479194343,-25841.723482814254,6991.133927242033,-12459.868187888644,-20725.118604316547,-36762.69641669946,0.114,1.008,0.174,192.0,0.0,0.0,0.0,0.0,0.0,0.0,0.0,0.0,0.0,1696032227.756739,0.0,2023-09-29 19:03:47.756
234.0,-55296.0029597286,-26143.00264632733,-44690.256677896585,-28538.32734088032,-9970.576759645552,-13049.68602057529,-187500.02235174447,-11473.441001587034,-24068.604298663653,8248.620718553153,-20497.734307972707,-25838.48247986823,6994.218467976865,-12459.80113265528,-20716.826107123627,-36749.28537002628,0.114,1.008,0.174,192.0,0.0,0.0,0.0,0.0,0.0,0.0,0.0,0.0,0.0,1696032227.756742,0.0,2023-09-29 19:03:47.756
236.0,-55282.03311944403,-26212.494219838885,-44699.28678265653,-28589.57989091633,-9988.88283835445,-13066.20395972776,-187500.02235174447,-11485.309777892802,-24090.419601252037,8226.224270608935,-20449.38748471588,-25850.84299455202,6977.700528824393,-12464.070315846244,-20740.742473690807,-36769.111367358135,0.114,1.008,0.174,192.0,0.0,0.0,0.0,0.0,0.0,0.0,0.0,0.0,0.0,1696032227.756746,0.0,2023-09-29 19:03:47.756
238.0,-55286.838744501925,-26156.3242860227,-44682.768843504055,-28541.6353990597,-9966.285224710136,-13047.115569962927,-187500.02235174447,-11469.909425963097,-24074.30399349976,8225.978401419927,-20508.932531944814,-25843.1986979483,6986.842392306614,-12461.924548378534,-20731.801775908683,-36762.94228588847,0.118,1.006,0.17,192.0,1.5,88.0,15.5,56.0,2.5,40.0,0.0,0.0,0.0,1696032227.75675,0.0,2023-09-29 19:03:47.756
240.0,-55271.70661350568,-26207.53213256981,-44692.78242502004,-28575.52064365395,-9976.07528878156,-13056.503302634155,-187500.02235174447,-11472.681042275552,-24074.058124310748,8244.977384206937,-20445.878260836394,-25836.49317461171,6986.663578350971,-12462.103362334175,-20728.80664215167,-36753.15222181704,0.118,1.006,0.17,192.0,0.0,0.0,0.0,0.0,0.0,0.0,0.0,0.0,0.0,1696032227.756753,0.0,2023-09-29 19:03:47.756
242.0,-55274.76880249606,-26201.47480982242,-44685.83103249443,-28543.825870016324,-9966.173465987858,-13048.34491590797,-187500.02235174447,-11470.781143996852,-24069.18544401949,8224.793758963795,-20526.76922402015,-25834.63797982192,6988.630531863038,-12469.926472893534,-20726.12443281704,-36755.94618987396,0.118,1.006,0.17,192.0,0.0,0.0,0.0,0.0,0.0,0.0,0.0,0.0,0.0,1696032227.817027,0.0,2023-09-29 19:03:47.817
244.0,-55274.67939551824,-26186.409734059544,-44706.88637577133,-28583.455512935583,-9995.186030290846,-13076.217541243735,-187500.02235174447,-11493.691682063543,-24065.206833506447,8238.987116692915,-20441.38556020088,-25849.323075929056,6980.606255603583,-12482.08582187722,-20741.86006091357,-36766.33975104568,0.118,1.006,0.17,192.0,0.0,0.0,0.0,0.0,0.0,0.0,0.0,0.0,0.0,1696032227.817036,0.0,2023-09-29 19:03:47.817
246.0,-55276.55694205248,-26203.44176333449,-44671.12358464284,-28529.140773909185,-9957.500989139198,-13035.425607612802,-187500.02235174447,-11453.458542043987,-24068.671353897014,8229.82290146624,-20525.741043775208,-25829.653540808387,6985.702453339392,-12468.27244380384,-20724.96214210536,-36760.595352720666,0.118,1.006,0.17,192.0,0.0,0.0,0.0,0.0,0.0,0.0,0.0,0.0,0.0,1696032227.81704,0.0,2023-09-29 19:03:47.817
248.0,-55260.95542442268,-26177.02200138831,-44680.108985913874,-28555.538184110905,-9976.857599837494,-13053.575224110513,-187500.02235174447,-11467.920120706573,-24068.827816108205,8265.764506550373,-20426.09696699345,-25826.5466483291,6988.563476629673,-12446.479492959916,-20711.95342683237,-36730.800477361736,0.11,1.006,0.178,192.0,1.5,56.0,15.5,56.0,2.5,72.0,0.0,0.0,0.0,1696032227.817043,0.0,2023-09-29 19:03:47.817
250.0,-55265.91751169176,-26235.22594394993,-44665.93797992921,-28535.823945501324,-9955.82460830505,-13041.34881989346,-187500.02235174447,-11453.324431577255,-24066.793807362774,8234.427360824033,-20521.091880928503,-25822.456279093774,6990.821002819658,-12459.085876832709,-20709.919418086934,-36745.3738147466,0.11,1.006,0.178,192.0,0.0,0.0,0.0,0.0,0.0,0.0,0.0,0.0,0.0,1696032227.817046,0.0,2023-09-29 19:03:47.817
252.0,-55264.88933144681,-26173.959812397938,-44683.08176792643,-28560.857899291263,-9973.236617235734,-13051.6306223429,-187500.02235174447,-11459.717030491476,-24057.38372294709,8260.377736136645,-20420.95606576873,-25835.621456577952,6982.506153882284,-12460.225815799931,-20712.691034399395,-36738.53418094327,0.11,1.006,0.178,192.0,0.0,0.0,0.0,0.0,0.0,0.0,0.0,0.0,0.0,1696032227.817049,0.0,2023-09-29 19:03:47.817
254.0,-55275.68522401872,-26264.707894886484,-44683.57350630445,-28554.93468701061,-9963.580663631044,-13040.6782675598,-187500.02235174447,-11453.547949021811,-24065.698571884463,8232.415703823055,-20530.77018627765,-25837.387244389924,6990.150450485999,-12474.910911907067,-20722.592857193096,-36760.148317831554,0.11,1.006,0.178,192.0,0.0,0.0,0.0,0.0,0.0,0.0,0.0,0.0,0.0,1696032227.817053,0.0,2023-09-29 19:03:47.817
0.0,-55284.29064563401,-26160.90639363604,-44698.504471600594,-28564.21066095956,-9977.639910893433,-13049.529558364102,-187500.02235174447,-11462.131018892647,-24067.263193996336,8271.575960108752,-20432.020179274103,-25845.657389838387,6984.897790539002,-12456.783647153814,-20722.838726382102,-36744.993835090856,0.11,1.006,0.178,192.0,0.0,0.0,0.0,0.0,0.0,0.0,0.0,0.0,0.0,1696032227.877365,0.0,2023-09-29 19:03:47.877
2.0,-55288.33631138043,-26256.08012152673,-44695.71050354368,-28566.6917045941,-9974.39890794741,-13047.875529274408,-187500.02235174447,-11461.84044621473,-24073.81225512174,8225.061979897258,-20531.463090355766,-25850.910049785383,6976.717052068359,-12471.602853727682,-20728.784290407217,-36764.84218416717,0.11,1.014,0.186,192.0,1.5,56.0,15.5,88.0,2.5,104.0,0.0,0.0,0.0,1696032227.877376,0.0,2023-09-29 19:03:47.877
4.0,-55285.54234332351,-26107.083392987657,-44698.07978845594,-28557.527489367425,-9985.530076686153,-13058.045573001573,-187500.02235174447,-11469.372984096168,-24073.65579291055,8253.91808198906,-20435.19412698676,-25857.59322137752,6967.418726374952,-12465.098496091188,-20730.66183694146,-36745.23970427987,0.11,1.014,0.186,192.0,0.0,0.0,0.0,0.0,0.0,0.0,0.0,0.0,0.0,1696032227.87738,0.0,2023-09-29 19:03:47.877
6.0,-55280.42379384325,-26246.71474059996,-44678.83493647992,-28568.144567983694,-9976.343509715023,-13053.44111364378,-187500.02235174447,-11455.64901300061,-24080.875406369614,8209.773386689829,-20528.11032868747,-25849.680703840346,6980.673310836949,-12470.641728716104,-20727.979627606823,-36767.05500686825,0.11,1.014,0.186,192.0,0.0,0.0,0.0,0.0,0.0,0.0,0.0,0.0,0.0,1696032227.877383,0.0,2023-09-29 19:03:47.877
8.0,-55275.34994785189,-26103.909445275003,-44676.331541100924,-28538.84143100279,-9976.522323670664,-13043.852215272453,-187500.02235174447,-11453.950280422006,-24065.698571884463,8264.021070482859,-20445.967667814217,-25840.002398491197,6983.780203316236,-12453.743809907892,-20712.10988904356,-36731.64984365104,0.11,1.014,0.186,192.0,0.0,0.0,0.0,0.0,0.0,0.0,0.0,0.0,0.0,1696032227.877386,0.0,2023-09-29 19:03:47.877
10.0,-55268.82323847094,-26262.807996607786,-44673.91755269976,-28557.50513762297,-9973.504838169198,-13047.674363574311,-187500.02235174447,-11451.133960620638,-24069.94540333097,8226.425436309033,-20509.759546489666,-25832.6486745654,6984.249589949798,-12480.208275342977,-20716.893162356995,-36751.25232353834,0.11,1.014,0.186,192.0,0.0,0.0,0.0,0.0,0.0,0.0,0.0,0.0,0.0,1696032227.877389,0.0,2023-09-29 19:03:47.877
12.0,-55267.392726825805,-26113.29717794623,-44680.198392891696,-28527.374986097217,-9980.2550649947,-13048.523729863611,-187500.02235174447,-11460.83461771424,-24060.87059508212,8272.87236128716,-20454.03664756258,-25833.185116432323,6977.499363124295,-12457.70006867648,-20707.30426398567,-36729.1688000165,0.112,1.008,0.186,192.0,1.5,64.0,15.5,64.0,2.5,104.0,0.0,0.0,0.0,1696032227.877393,0.0,2023-09-29 19:03:47.877
14.0,-55263.03413665702,-26244.01017952087,-44680.51131731407,-28560.12029172424,-9984.278378996656,-13063.164122481838,-187500.02235174447,-11467.428382328557,-24065.989144562383,8216.43420653751,-20496.259092838656,-25834.63797982192,6975.487706123317,-12473.61451072866,-20720.089461814103,-36751.38643400508,0.112,1.008,0.186,192.0,0.0,0.0,0.0,0.0,0.0,0.0,0.0,0.0,0.0,1696032227.877396,0.0,2023-09-29 19:03:47.877
16.0,-55275.3946513408,-26100.1096487176,-44674.02931142203,-28523.79870698437,-9976.589378904033,-13053.552872366055,-187500.02235174447,-11461.974556681462,-24065.944441073472,8257.382602379634,-20466.128941312905,-25831.3969768759,6980.38273815903,-12464.18207456852,-20714.836801867103,-36734.287349496764,0.112,1.008,0.186,192.0,0.0,0.0,0.0,0.0,0.0,0.0,0.0,0.0,0.0,1696032227.936251,0.0,2023-09-29 19:03:47.936
18.0,-55275.014671685065,-26215.77992627381,-44676.21978237865,-28566.110559238263,-9985.93240808635,-13060.4819131472,-187500.02235174447,-11469.820018985274,-24078.751990646364,8230.24758461089,-20478.400049018863,-25832.15693618738,6974.973616000845,-12471.401688027585,-20720.335331003116,-36748.771279903805,0.112,1.008,0.186,192.0,0.0,0.0,0.0,0.0,0.0,0.0,0.0,0.0,0.0,1696032227.936261,0.0,2023-09-29 19:03:47.936
20.0,-55273.02536642854,-26098.07563997217,-44671.43650906521,-28528.380814597705,-9972.83428583554,-13042.309944905037,-187500.02235174447,-11457.727725234954,-24060.53531891529,8254.856855256183,-20468.54292971408,-25837.02961647864,6983.042595749212,-12461.656327445073,-20714.456822211367,-36736.187247775466,0.112,1.008,0.186,192.0,0.0,0.0,0.0,0.0,0.0,0.0,0.0,0.0,0.0,1696032227.936264,0.0,2023-09-29 19:03:47.936
22.0,-55259.74843022209,-26229.638007836107,-44682.9476574597,-28573.28546920842,-9981.015024306182,-13051.831788043,-187500.02235174447,-11461.549873536813,-24069.11838878613,8236.528424802831,-20468.90055762536,-25842.416386892368,6973.274883422242,-12482.622263744148,-20725.230363038823,-36747.63134093658,0.114,1.002,0.184,192.0,1.5,72.0,15.5,40.0,2.5,96.0,0.0,0.0,0.0,1696032227.936268,0.0,2023-09-29 19:03:47.936
24.0,-55274.70174726269,-26108.80447731072,-44682.52297431505,-28527.97848319751,-9973.3036724691,-13049.194282197272,-187500.02235174447,-11462.712164248487,-24056.556708402244,8249.291270886812,-20488.503037512663,-25842.416386892368,6974.817153789659,-12465.456124002472,-20718.927171102427,-36732.27569249579,0.114,1.002,0.184,192.0,0.0,0.0,0.0,0.0,0.0,0.0,0.0,0.0,0.0,1696032227.936271,0.0,2023-09-29 19:03:47.936
26.0,-55261.15659012277,-26214.304711139765,-44679.17021264675,-28575.855919820777,-9982.713756884785,-13059.945471280274,-187500.02235174447,-11473.12807716466,-24080.89775811407,8237.690715514507,-20462.977345344705,-25841.34350315851,6973.47604912234,-12469.94882463799,-20723.75514790477,-36749.24066653736,0.114,1.002,0.184,192.0,0.0,0.0,0.0,0.0,0.0,0.0,0.0,0.0,0.0,1696032227.936274,0.0,2023-09-29 19:03:47.936
28.0,-55270.45491581618,-26136.475936946383,-44661.31116882696,-28526.45856457455,-9960.987861274229,-13046.310907162537,-187500.02235174447,-11462.667460759576,-24063.41869395002,8251.30292788779,-20508.887828455907,-25833.945075743806,6988.697587096404,-12455.397838997584,-20709.874714598027,-36739.71882339941,0.114,1.002,0.184,192.0,0.0,0.0,0.0,0.0,0.0,0.0,0.0,0.0,0.0,1696032227.936277,0.0,2023-09-29 19:03:47.936
30.0,-55266.16338088076,-26208.44855409248,-44671.592971276405,-28575.095960509298,-9977.550503915609,-13069.713183607244,-187500.02235174447,-11480.459449346,-24068.850167852663,8249.53714007582,-20446.48175793669,-25842.93047701484,6986.283598695231,-12469.077106604233,-20713.92038034444,-36749.39712874856,0.114,1.002,0.184,192.0,0.0,0.0,0.0,0.0,0.0,0.0,0.0,0.0,0.0,1696032227.996361,0.0,2023-09-29 19:03:47.996
32.0,-55273.472401317646,-26171.344658296664,-44662.31699732745,-28533.991102455988,-9959.132666484436,-13051.943546765277,-187500.02235174447,-11468.054231173306,-24055.595583390663,8236.640183525107,-20516.77799424863,-25844.137471215425,6992.564438887172,-12473.011013628366,-20710.277045998224,-36750.35825376013,0.106,1.002,0.178,192.0,1.5,40.0,15.5,40.0,2.5,72.0,0.0,0.0,0.0,1696032227.996373,0.0,2023-09-29 19:03:47.996
34.0,-55270.85724721638,-26188.108466638147,-44679.12550915784,-28573.41957967515,-9978.086945782536,-13069.310852207049,-187500.02235174447,-11480.481801090456,-24068.671353897014,8237.95893644797,-20438.54688865505,-25850.708884085285,6981.567380615161,-12484.365699811662,-20720.022406580734,-36746.55845720273,0.106,1.002,0.178,192.0,0.0,0.0,0.0,0.0,0.0,0.0,0.0,0.0,0.0,1696032227.996377,0.0,2023-09-29 19:03:47.996
36.0,-55275.12643040734,-26182.274661335312,-44666.2956078405,-28532.471183833022,-9963.73712584223,-13058.96199452424,-187500.02235174447,-11467.517789306376,-24060.177691004003,8247.681945286029,-20527.730349031728,-25841.321151414057,6987.334130684631,-12474.46387701796,-20716.781403634715,-36751.922875872006,0.106,1.002,0.178,192.0,0.0,0.0,0.0,0.0,0.0,0.0,0.0,0.0,0.0,1696032227.99638,0.0,2023-09-29 19:03:47.996
38.0,-55265.33636633592,-26174.965640898423,-44669.44720380869,-28557.348675411784,-9980.88091383945,-13066.405125427858,-187500.02235174447,-11476.726708021964,-24061.697609626965,8259.684832058529,-20440.312676467023,-25838.571886846054,6980.740366070315,-12465.94786238049,-20717.630769924017,-36740.94816934445,0.106,1.002,0.178,192.0,0.0,0.0,0.0,0.0,0.0,0.0,0.0,0.0,0.0,1696032227.996385,0.0,2023-09-29 19:03:47.996
40.0,-55272.62303502834,-26202.123010411626,-44653.51041001206,-28523.485782561995,-9962.798352575106,-13055.273956689116,-187500.02235174447,-11471.831675986252,-24063.37399046111,8221.306886828766,-20530.30079964409,-25836.2473054227,6984.182534716432,-12472.005185127877,-20712.892200099493,-36748.5254107148,0.106,1.002,0.178,192.0,0.0,0.0,0.0,0.0,0.0,0.0,0.0,0.0,0.0,1696032227.996388,0.0,2023-09-29 19:03:47.996
42.0,-55261.78243896752,-26139.35931198112,-44665.26742759555,-28544.11644269424,-9980.947969072817,-13068.819113829031,-187500.02235174447,-11480.41474585709,-24061.98818230488,8251.593500565708,-20422.833612302973,-25839.15303220189,6984.875438794546,-12470.284100804818,-20710.657025653964,-36733.99677681885,0.104,1.004,0.178,192.0,1.5,32.0,15.5,48.0,2.5,72.0,0.0,0.0,0.0,1696032227.996391,0.0,2023-09-29 19:03:47.996
44.0,-55263.10119189038,-26205.162847657542,-44655.94675015769,-28525.96682619653,-9964.63119562044,-13052.815264799032,-187500.02235174447,-11472.07754517526,-24064.98331606189,8233.82386372374,-20520.48838382821,-25832.179287931835,6983.824906805147,-12482.331691066229,-20715.462650711856,-36752.70518692794,0.104,1.004,0.178,192.0,0.0,0.0,0.0,0.0,0.0,0.0,0.0,0.0,0.0,1696032227.996395,0.0,2023-09-29 19:03:47.996
46.0,-55249.82425568393,-26108.60331161062,-44667.77082297455,-28534.684006534106,-9983.920751085372,-13056.570357867522,-187500.02235174447,-11479.453620845512,-24058.411903192035,8277.745041578417,-20417.96093201172,-25830.234686164225,6976.6499968349935,-12457.18597855401,-20716.15555478997,-36730.733422128375,0.104,1.004,0.178,192.0,0.0,0.0,0.0,0.0,0.0,0.0,0.0,0.0,0.0,1696032228.056906,0.0,2023-09-29 19:03:48.056
48.0,-55259.65902324427,-26206.883931980603,-44655.857343179865,-28527.30793086385,-9972.901341068906,-13044.925099006308,-187500.02235174447,-11469.55179805181,-24068.3807812191,8239.747076004396,-20515.25807562567,-25824.579694817032,6977.745232313304,-12466.819580414243,-20717.27314201273,-36750.82764039369,0.104,1.004,0.178,192.0,0.0,0.0,0.0,0.0,0.0,0.0,0.0,0.0,0.0,1696032228.056915,0.0,2023-09-29 19:03:48.056
50.0,-55250.71832546215,-26082.340011875636,-44659.21010484816,-28524.44690757357,-9985.574780175064,-13052.815264799032,-187500.02235174447,-11475.787934754842,-24057.85310958065,8268.223198440457,-20413.37882439838,-25828.603008818987,6987.66940685146,-12443.439655713995,-20711.17111577644,-36724.38552670307,0.104,1.004,0.178,192.0,0.0,0.0,0.0,0.0,0.0,0.0,0.0,0.0,0.0,1696032228.056918,0.0,2023-09-29 19:03:48.056
52.0,-55256.10509587587,-26207.778001758816,-44652.99631988959,-28537.768547268934,-9978.44457369382,-13052.636450843387,-187500.02235174447,-11473.329242864758,-24057.65194388055,8233.756808490374,-20505.736232487707,-25830.704072797787,6987.915276040469,-12467.020746114344,-20717.921342601938,-36746.49140196936,0.104,1.01,0.17,192.0,1.5,32.0,15.5,72.0,2.5,40.0,0.0,0.0,0.0,1696032228.056921,0.0,2023-09-29 19:03:48.056
54.0,-55265.11284889136,-26082.027087453254,-44661.06529963795,-28529.990140198486,-9982.3561289735,-13058.91729103533,-187500.02235174447,-11474.089202176236,-24054.36623744562,8257.047326212803,-20431.729606596185,-25841.499965369698,6980.628607348038,-12473.368641539651,-20714.85915361156,-36729.10174478313,0.104,1.01,0.17,192.0,0.0,0.0,0.0,0.0,0.0,0.0,0.0,0.0,0.0,1696032228.056924,0.0,2023-09-29 19:03:48.056
56.0,-55275.55111355199,-26228.028682235323,-44656.28202632452,-28543.46824210504,-9972.275492224157,-13052.904671776852,-187500.02235174447,-11466.98134743945,-24079.735467402395,8212.299133813278,-20523.3941106074,-25840.40472989139,6979.220447447354,-12472.921606650543,-20717.5413629462,-36749.59829444865,0.104,1.01,0.17,192.0,0.0,0.0,0.0,0.0,0.0,0.0,0.0,0.0,0.0,1696032228.056927,0.0,2023-09-29 19:03:48.056
58.0,-55263.682337246224,-26103.104782474613,-44652.48222976711,-28525.698605263067,-9974.331852714044,-13047.361439151937,-187500.02235174447,-11460.856969458697,-24070.548900431266,8260.578901836741,-20457.81409237553,-25845.009189249184,6982.886133538024,-12465.970214124944,-20712.82514486613,-36726.26307323732,0.104,1.01,0.17,192.0,0.0,0.0,0.0,0.0,0.0,0.0,0.0,0.0,0.0,1696032228.056931,0.0,2023-09-29 19:03:48.056
60.0,-55257.826180198936,-26268.552394932794,-44645.64259596379,-28545.12227119473,-9973.59424514702,-13051.943546765277,-187500.02235174447,-11459.26999560237,-24076.33800224519,8229.219404365946,-20521.650674539887,-25837.34254090101,6987.758813829281,-12468.294795548296,-20713.62980766652,-36743.4739164679,0.104,1.01,0.17,192.0,0.0,0.0,0.0,0.0,0.0,0.0,0.0,0.0,0.0,1696032228.117136,0.0,2023-09-29 19:03:48.117
62.0,-55271.12546814984,-26114.951207035927,-44646.00022387508,-28511.39348881167,-9973.124858513458,-13047.361439151937,-187500.02235174447,-11463.6062340267,-24054.38858919008,8259.193093680513,-20467.20182504676,-25839.823584535552,6995.33605519963,-12464.27148154634,-20705.739641873795,-36722.82090459119,0.11,1.012,0.178,192.0,1.5,56.0,15.5,80.0,2.5,72.0,0.0,0.0,0.0,1696032228.117149,0.0,2023-09-29 19:03:48.117
64.0,-55258.9437674217,-26243.540792887303,-44651.69991871118,-28550.240820675,-9980.50093418371,-13052.077657232006,-187500.02235174447,-11469.328280607258,-24068.3807812191,8221.955087417971,-20490.090011368997,-25844.91978227136,6985.702453339392,-12484.052775389287,-20715.507354200763,-36743.02688157879,0.11,1.012,0.178,192.0,0.0,0.0,0.0,0.0,0.0,0.0,0.0,0.0,0.0,1696032228.117158,0.0,2023-09-29 19:03:48.117
66.0,-55255.97098540914,-26104.06590748619,-44649.93413089921,-28501.424610784605,-9973.326024213557,-13037.414912869324,-187500.02235174447,-11463.628585771154,-24061.38468520459,8262.948186749005,-20466.419513990822,-25835.8002705336,6987.468241151362,-12460.382278011117,-20707.684243641408,-36718.52936965578,0.11,1.012,0.178,192.0,0.0,0.0,0.0,0.0,0.0,0.0,0.0,0.0,0.0,1696032228.117163,0.0,2023-09-29 19:03:48.117
68.0,-55256.46272378716,-26257.644743638604,-44647.40838377576,-28537.343864124283,-9970.755573601196,-13039.538328592578,-187500.02235174447,-11456.006640911895,-24070.10186554216,8248.799532508794,-20485.127924099917,-25828.58065707453,6984.718976583359,-12464.137371079609,-20706.499601185275,-36728.20767500493,0.11,1.012,0.178,192.0,0.0,0.0,0.0,0.0,0.0,0.0,0.0,0.0,0.0,1696032228.117166,0.0,2023-09-29 19:03:48.117
70.0,-55277.0486804305,-26130.195096754444,-44651.90108441128,-28496.82015142681,-9966.3522799435,-13035.470311101712,-187500.02235174447,-11455.738419978432,-24061.51879567132,8255.72857328994,-20486.692546211787,-25834.39211063291,6985.009549261278,-12455.353135508674,-20695.63665338,-36704.7159915824,0.11,1.012,0.178,192.0,0.0,0.0,0.0,0.0,0.0,0.0,0.0,0.0,0.0,1696032228.117169,0.0,2023-09-29 19:03:48.117
72.0,-55277.27219787505,-26235.292999183297,-44656.147915857786,-28550.6878555641,-9980.120954527967,-13054.603404355455,-187500.02235174447,-11466.46725731698,-24084.496388971376,8242.026953938837,-20469.705220425752,-25842.01405549217,6978.013453246767,-12477.011975885864,-20712.06518555465,-36726.59834940414,0.108,1.008,0.176,192.0,1.5,48.0,15.5,64.0,2.5,64.0,0.0,0.0,0.0,1696032228.117172,0.0,2023-09-29 19:03:48.117
74.0,-55297.72404405165,-26129.390433954053,-44656.03615713551,-28515.774430724912,-9971.180256745847,-13053.262299688138,-187500.02235174447,-11472.32341436427,-24076.494464456377,8235.097913157691,-20506.42913656582,-25848.808985806583,6985.47893589484,-12474.955615395978,-20704.86792384004,-36723.24558773584,0.108,1.008,0.176,192.0,0.0,0.0,0.0,0.0,0.0,0.0,0.0,0.0,0.0,1696032228.117175,0.0,2023-09-29 19:03:48.117
76.0,-55294.9524277392,-26224.72062405594,-44663.97102641714,-28568.32338193934,-9984.300730741112,-13071.233102230204,-187500.02235174447,-11483.186362169548,-24090.01726985184,8212.656761724564,-20474.7343629282,-25859.8060440786,6975.867685779058,-12499.296665107808,-20718.99422633579,-36746.98314034738,0.108,1.008,0.176,192.0,0.0,0.0,0.0,0.0,0.0,0.0,0.0,0.0,0.0,1696032228.177417,0.0,2023-09-29 19:03:48.177
78.0,-55305.077767977455,-26146.17659403999,-44672.26352361006,-28529.02901518691,-9977.68461438234,-13059.140808479884,-187500.02235174447,-11480.101821434717,-24096.946310632982,8210.041607623292,-20531.083110700027,-25863.44937842481,6976.493534623806,-12481.32586256574,-20716.736700145808,-36741.484611211374,0.108,1.008,0.176,192.0,0.0,0.0,0.0,0.0,0.0,0.0,0.0,0.0,0.0,1696032228.177426,0.0,2023-09-29 19:03:48.177
80.0,-55314.24198320413,-26200.826609233216,-44679.12550915784,-28576.012382031964,-9995.230733779756,-13072.149523752872,-187500.02235174447,-11494.18342044156,-24103.09304035819,8220.234003094913,-20479.96467113074,-25873.3064977296,6968.268092664253,-12491.630016759636,-20735.713331188363,-36753.28633228378,0.108,1.008,0.176,192.0,0.0,0.0,0.0,0.0,0.0,0.0,0.0,0.0,0.0,1696032228.177429,0.0,2023-09-29 19:03:48.177
82.0,-55305.54715461101,-26165.488501249376,-44662.36170081637,-28534.12521292272,-9981.104431284002,-13058.96199452424,-187500.02235174447,-11482.09112669124,-24093.19121756449,8223.29619208529,-20552.004343510194,-25865.729256359253,6986.9988545178,-12488.634883002624,-20725.498583972287,-36748.79363164826,0.108,1.014,0.176,192.0,1.5,48.0,15.5,88.0,2.5,64.0,0.0,0.0,0.0,1696032228.177432,0.0,2023-09-29 19:03:48.177
84.0,-55299.981570241645,-26183.74987646936,-44665.82622120693,-28573.531338397424,-9994.02373957917,-13076.575169155023,-187500.02235174447,-11480.705318535009,-24102.333081046712,8245.87145398515,-20468.073543080514,-25870.758398861697,6985.14365972801,-12479.47066777595,-20730.81829915265,-36748.10072757015,0.108,1.014,0.176,192.0,0.0,0.0,0.0,0.0,0.0,0.0,0.0,0.0,0.0,1696032228.177436,0.0,2023-09-29 19:03:48.177
86.0,-55306.59768660041,-26207.4874290809,-44658.517200770046,-28538.617913558235,-9967.872198566462,-13053.619927599422,-187500.02235174447,-11459.024126413362,-24107.56338924925,8204.43131976501,-20569.282241974142,-25865.371628447967,7004.902601826501,-12485.125659123143,-20719.08363331361,-36753.42044275051,0.108,1.014,0.176,192.0,0.0,0.0,0.0,0.0,0.0,0.0,0.0,0.0,0.0,1696032228.177439,0.0,2023-09-29 19:03:48.177
88.0,-55307.08942497843,-26151.809233642725,-44692.11187268637,-28567.7422365835,-9990.02277732167,-13068.237968473191,-187500.02235174447,-11466.869588717174,-24102.936578147004,8235.232023624423,-20465.436037234787,-25878.469750698776,6998.085319767633,-12461.835141400712,-20723.889258371502,-36736.83544836467,0.108,1.014,0.176,192.0,0.0,0.0,0.0,0.0,0.0,0.0,0.0,0.0,0.0,1696032228.177442,0.0,2023-09-29 19:03:48.177
90.0,-55294.728910294645,-26219.110336197657,-44689.63082905184,-28547.580963084816,-9970.532056156642,-13046.042686229071,-187500.02235174447,-11450.999850153908,-24103.76359269185,8210.980380890416,-20570.511587919187,-25876.88277684245,7020.727636900859,-12465.344365280196,-20725.43152873892,-36758.44958525295,0.108,1.014,0.176,192.0,0.0,0.0,0.0,0.0,0.0,0.0,0.0,0.0,0.0,1696032228.236787,0.0,2023-09-29 19:03:48.236
92.0,-55314.24198320413,-26138.88992534756,-44712.74253281862,-28568.32338193934,-9986.513553442188,-13058.671421846322,-187500.02235174447,-11463.963861937984,-24108.81508693875,8247.81605575276,-20461.99386858867,-25875.98870706424,7022.4934247128285,-12456.493074475897,-20731.4441479974,-36746.13377405808,0.11,1.01,0.176,192.0,1.5,56.0,15.5,72.0,2.5,64.0,0.0,0.0,0.0,1696032228.236805,0.0,2023-09-29 19:03:48.236
94.0,-55303.60255284341,-26229.190972947,-44702.61719258037,-28559.27092543494,-9967.2016462328,-13035.58206982399,-187500.02235174447,-11441.947393649509,-24103.987110136404,8219.921078672538,-20555.69238134532,-25870.512529672687,7029.623631194071,-12472.675737461535,-20734.975723621337,-36767.72555920191,0.11,1.01,0.176,192.0,0.0,0.0,0.0,0.0,0.0,0.0,0.0,0.0,0.0,1696032228.236809,0.0,2023-09-29 19:03:48.236
96.0,-55297.27700916255,-26136.99002706886,-44705.7017333152,-28562.713094081057,-9972.521361413164,-13032.564584322525,-187500.02235174447,-11449.323469319756,-24093.48179024241,8262.92583500455,-20447.46523469272,-25864.611669136488,7034.764532418792,-12455.84487388669,-20726.5938194506,-36740.00939607732,0.11,1.01,0.176,192.0,0.0,0.0,0.0,0.0,0.0,0.0,0.0,0.0,0.0,1696032228.236814,0.0,2023-09-29 19:03:48.236
98.0,-55301.7026545647,-26237.95285677348,-44698.25860241158,-28564.7918063154,-9966.285224710136,-13026.48490983068,-187500.02235174447,-11442.863815172172,-24093.41473500904,8222.089197884703,-20534.3464653905,-25858.777863833653,7033.5351864737495,-12468.808885670767,-20731.310037530668,-36757.35434977464,0.11,1.01,0.176,192.0,0.0,0.0,0.0,0.0,0.0,0.0,0.0,0.0,0.0,1696032228.236819,0.0,2023-09-29 19:03:48.236
100.0,-55305.43539588874,-26109.74325057784,-44702.86306176938,-28561.953134769577,-9974.085983525036,-13023.087444673472,-187500.02235174447,-11437.678210458544,-24094.4876187429,8255.39329712311,-20435.931734553786,-25858.710808600285,7035.68095394146,-12454.36965875264,-20726.30324677268,-36735.896675097545,0.11,1.01,0.176,192.0,0.0,0.0,0.0,0.0,0.0,0.0,0.0,0.0,0.0,1696032228.236824,0.0,2023-09-29 19:03:48.236
102.0,-55306.30711392249,-26231.71672007045,-44697.63275356683,-28583.008478046475,-9964.653547364896,-13019.600572538446,-187500.02235174447,-11432.827881911742,-24114.24656084139,8214.087273369703,-20515.12396515893,-25865.12575925896,7027.2543462818085,-12481.527028265838,-20734.975723621337,-36755.2756375403,0.102,1.012,0.172,192.0,1.5,24.0,15.5,80.0,2.5,48.0,0.0,0.0,0.0,1696032228.236837,0.0,2023-09-29 19:03:48.236
104.0,-55297.36641614037,-26106.70341333192,-44696.35870413288,-28568.926879039635,-9963.223035719757,-13018.281819615582,-187500.02235174447,-11436.06888485776,-24087.20095005047,8258.321375646756,-20450.19214751627,-25861.5047766572,7033.624593451571,-12463.645632701591,-20725.498583972287,-36734.44381170796,0.102,1.012,0.172,192.0,0.0,0.0,0.0,0.0,0.0,0.0,0.0,0.0,0.0,1696032228.236843,0.0,2023-09-29 19:03:48.236
106.0,-55299.065148718975,-26233.99659800489,-44699.08561695643,-28595.12312354125,-9962.284262452637,-13020.181717894284,-187500.02235174447,-11444.495492517412,-24102.802467680274,8215.227212336924,-20519.14727916089,-25871.16073026189,7026.695552670426,-12485.975025412445,-20732.96406662036,-36757.935495130485,0.102,1.012,0.172,192.0,0.0,0.0,0.0,0.0,0.0,0.0,0.0,0.0,0.0,1696032228.29742,0.0,2023-09-29 19:03:48.297
108.0,-55308.072901734464,-26093.426477125464,-44700.404369879296,-28570.60325987378,-9958.126837983948,-13017.991246937663,-187500.02235174447,-11443.489664016925,-24080.785999391795,8248.620718553153,-20465.436037234787,-25864.83518658104,7026.919070114979,-12461.94690012299,-20722.548153704185,-36741.46225946692,0.102,1.012,0.172,192.0,0.0,0.0,0.0,0.0,0.0,0.0,0.0,0.0,0.0,1696032228.297434,0.0,2023-09-29 19:03:48.297
110.0,-55303.401387143305,-26261.757464618386,-44701.63371582433,-28610.23290279304,-9964.340622942522,-13021.746340006155,-187500.02235174447,-11439.913384904074,-24097.438049011,8212.522651257832,-20517.78382274912,-25865.43868368133,7015.564383931683,-12474.307414806774,-20731.555906719677,-36765.93741964548,0.102,1.012,0.172,192.0,0.0,0.0,0.0,0.0,0.0,0.0,0.0,0.0,0.0,1696032228.297439,0.0,2023-09-29 19:03:48.297
112.0,-55317.52768963906,-26098.634433583557,-44702.17015769126,-28570.759722084968,-9962.77600083065,-13019.66762777181,-187500.02235174447,-11436.851195913696,-24095.739316432395,8245.111494673669,-20484.92675839981,-25864.812834836583,7024.415674735985,-12456.582481453715,-20719.463612969357,-36740.29996875525,0.108,1.002,0.182,192.0,1.5,48.0,15.5,40.0,2.5,88.0,0.0,0.0,0.0,1696032228.297445,0.0,2023-09-29 19:03:48.297
114.0,-55298.7522242966,-26238.556353873773,-44708.87568102786,-28610.83639989333,-9968.16277124438,-13026.507261575134,-187500.02235174447,-11440.405123282091,-24111.45259278448,8213.081444869214,-20501.57880801902,-25867.18211974885,7012.457491452396,-12479.001281142388,-20731.555906719677,-36761.04238760977,0.108,1.002,0.182,192.0,0.0,0.0,0.0,0.0,0.0,0.0,0.0,0.0,0.0,1696032228.29745,0.0,2023-09-29 19:03:48.297
116.0,-55305.971837755664,-26092.35359339161,-44714.93300377525,-28567.78694007241,-9964.273567709157,-13025.792005752564,-187500.02235174447,-11444.27197507286,-24090.10667682966,8247.570186563753,-20485.172627588825,-25868.16559650488,7012.055160052199,-12458.392972754596,-20722.81637463765,-36741.305797255736,0.108,1.002,0.182,192.0,0.0,0.0,0.0,0.0,0.0,0.0,0.0,0.0,0.0,1696032228.297456,0.0,2023-09-29 19:03:48.297
118.0,-55299.1545556968,-26222.172525188034,-44718.86691079938,-28611.50695222699,-9976.030585292649,-13025.926116219296,-187500.02235174447,-11453.570300766269,-24099.226188567423,8222.022142651336,-20482.356307787457,-25874.69230588583,7009.216488506376,-12484.723327722946,-20734.50633698777,-36763.63518996658,0.108,1.002,0.182,192.0,0.0,0.0,0.0,0.0,0.0,0.0,0.0,0.0,0.0,1696032228.297461,0.0,2023-09-29 19:03:48.297
120.0,-55304.22840168815,-26125.098899018634,-44708.003962994095,-28558.019227745444,-9960.83139906304,-13015.756072492131,-187500.02235174447,-11447.55768150779,-24082.417676737037,8246.832578996728,-20504.86451445395,-25858.129663244446,7019.34182874463,-12455.062562830755,-20725.29741827219,-36750.157088060034,0.108,1.002,0.182,192.0,0.0,0.0,0.0,0.0,0.0,0.0,0.0,0.0,0.0,1696032228.297467,0.0,2023-09-29 19:03:48.297
122.0,-55298.081671962944,-26222.507801354863,-44719.58216662195,-28610.791696404423,-9977.5058004267,-13036.63260181339,-187500.02235174447,-11459.35940258019,-24100.43318276801,8230.135825888614,-20465.14546455687,-25862.711770857783,7003.226220992354,-12462.170417567542,-20735.2439445548,-36767.09971035716,0.108,1.004,0.174,192.0,1.5,48.0,15.5,48.0,2.5,56.0,0.0,0.0,0.0,1696032228.357735,0.0,2023-09-29 19:03:48.357
124.0,-55299.40042488581,-26144.99195158386,-44709.12155021686,-28564.098902237285,-9965.927596798849,-13026.998999953152,-187500.02235174447,-11446.149521607103,-24088.22913029541,8243.703334772985,-20507.90435169987,-25857.481462655243,7014.715017642381,-12454.459065730462,-20728.87369738504,-36760.90827714304,0.108,1.004,0.174,192.0,0.0,0.0,0.0,0.0,0.0,0.0,0.0,0.0,0.0,1696032228.357751,0.0,2023-09-29 19:03:48.357
126.0,-55299.489831863626,-26206.928635469518,-44721.10208524491,-28607.103658569296,-9983.652530151909,-13045.662706573334,-187500.02235174447,-11458.84531245772,-24096.43222051051,8236.662535269563,-20458.551699942556,-25862.10827375749,7008.612991406083,-12461.075182089233,-20739.177851578934,-36770.20660283644,0.108,1.004,0.174,192.0,0.0,0.0,0.0,0.0,0.0,0.0,0.0,0.0,0.0,1696032228.357756,0.0,2023-09-29 19:03:48.357
128.0,-55298.9533899967,-26163.767416926315,-44711.46848338467,-28569.50802439547,-9969.705041611796,-13029.569450565512,-187500.02235174447,-11445.993059395918,-24087.84915063967,8229.666439255052,-20516.08509017052,-25868.36676220498,7008.590639661627,-12470.66408046056,-20740.4966045018,-36770.38541679209,0.108,1.004,0.174,192.0,0.0,0.0,0.0,0.0,0.0,0.0,0.0,0.0,0.0,1696032228.357761,0.0,2023-09-29 19:03:48.357
130.0,-55303.91547726578,-26198.166751643035,-44714.5530241195,-28603.057992822887,-9982.93727432934,-13038.91247974783,-187500.02235174447,-11455.537254278332,-24094.21939780944,8233.399180579088,-20451.75676962814,-25867.49504417122,7012.6363054080375,-12471.46874326095,-20739.46842425685,-36765.28921905628,0.108,1.004,0.174,192.0,0.0,0.0,0.0,0.0,0.0,0.0,0.0,0.0,0.0,1696032228.357766,0.0,2023-09-29 19:03:48.357
132.0,-55308.72110232367,-26190.500103294864,-44701.164329190775,-28563.674219092634,-9955.265814693668,-13023.020389440107,-187500.02235174447,-11441.142730849117,-24091.224264052424,8221.977439162427,-20531.68660780032,-25875.83224485305,7014.3350379866415,-12459.957594866466,-20731.891182886506,-36766.20564057895,0.108,1.004,0.174,192.0,1.5,48.0,15.5,48.0,2.5,56.0,0.0,0.0,0.0,1696032228.357771,0.0,2023-09-29 19:03:48.357
134.0,-55307.84938428991,-26167.544861739265,-44713.01075375209,-28594.787847374424,-9975.605902147998,-13039.91830824832,-187500.02235174447,-11453.41383855508,-24101.327252546223,8234.494416057398,-20442.7266648682,-25879.676744899363,7005.237877993332,-12456.403667498073,-20731.421796252944,-36758.8742683976,0.108,1.004,0.174,192.0,0.0,0.0,0.0,0.0,0.0,0.0,0.0,0.0,0.0,1696032228.357776,0.0,2023-09-29 19:03:48.357
136.0,-55310.77746281355,-26216.405775118565,-44695.621096565854,-28571.743198841003,-9958.797390317606,-13025.747302263657,-187500.02235174447,-11436.247698813404,-24099.472057756437,8203.24667730888,-20541.25315442719,-25875.87694834196,7011.474014696362,-12463.690336190502,-20732.002941608785,-36775.0792831277,0.108,1.004,0.174,192.0,0.0,0.0,0.0,0.0,0.0,0.0,0.0,0.0,0.0,1696032228.417957,0.0,2023-09-29 19:03:48.417
138.0,-55304.83189878844,-26166.091998349668,-44697.43158786674,-28585.46716993656,-9968.363936944475,-13038.48779660318,-187500.02235174447,-11445.16604485107,-24088.609109951158,8254.320413389256,-20445.073598036004,-25875.92165183087,7012.502194941306,-12460.874016389134,-20723.039892082204,-36756.460279996434,0.108,1.004,0.174,192.0,0.0,0.0,0.0,0.0,0.0,0.0,0.0,0.0,0.0,1696032228.417978,0.0,2023-09-29 19:03:48.417
140.0,-55314.91253553779,-26215.46700185144,-44695.57639307695,-28570.379742429228,-9961.233730463236,-13028.697732531757,-187500.02235174447,-11437.946431392009,-24095.96283387695,8209.125186100626,-20536.49223285821,-25875.899300086417,7013.060988552688,-12461.678679189525,-20724.872735127537,-36767.993780135366,0.108,1.004,0.174,192.0,0.0,0.0,0.0,0.0,0.0,0.0,0.0,0.0,0.0,1696032228.417984,0.0,2023-09-29 19:03:48.417
142.0,-55299.266314419074,-26130.77624211028,-44704.15946294778,-28586.33888797032,-9978.288111482634,-13034.978572723696,-187500.02235174447,-11442.461483771978,-24090.240787296392,8239.277689370834,-20435.95408629824,-25882.403657722916,7001.818061091669,-12468.60771997067,-20734.3945782655,-36755.25328579584,0.108,1.006,0.174,192.0,1.5,48.0,15.5,56.0,2.5,56.0,0.0,0.0,0.0,1696032228.417989,0.0,2023-09-29 19:03:48.417
144.0,-55294.03600621653,-26251.22979297993,-44683.126471415344,-28575.78886458741,-9954.707021082286,-13019.645276027357,-187500.02235174447,-11431.039742355317,-24104.90353165907,8204.923058143027,-20542.39309339441,-25870.28901222813,7002.95800005889,-12462.930376879023,-20737.63558121152,-36765.71390220093,0.108,1.006,0.174,192.0,0.0,0.0,0.0,0.0,0.0,0.0,0.0,0.0,0.0,1696032228.417995,0.0,2023-09-29 19:03:48.417
146.0,-55309.74928256861,-26117.49930590383,-44689.764939518565,-28576.146492498698,-9976.589378904033,-13032.58693606698,-187500.02235174447,-11450.26224258688,-24094.554673976265,8247.480779585932,-20440.80441484504,-25871.943041317827,7008.970619317368,-12442.61264116915,-20728.44901424039,-36736.880151853584,0.108,1.006,0.174,192.0,0.0,0.0,0.0,0.0,0.0,0.0,0.0,0.0,0.0,1696032228.418,0.0,2023-09-29 19:03:48.418
148.0,-55306.7541488116,-26244.546621387795,-44681.65125628129,-28587.32236472635,-9964.005346775692,-13030.329409876991,-187500.02235174447,-11445.277803573348,-24104.41179328105,8212.05326462427,-20528.780881021128,-25874.424084952367,7007.629514650049,-12465.210254813464,-20743.06705511416,-36771.43594878149,0.108,1.006,0.174,192.0,0.0,0.0,0.0,0.0,0.0,0.0,0.0,0.0,0.0,1696032228.418006,0.0,2023-09-29 19:03:48.418
150.0,-55317.170061727775,-26109.944416277936,-44694.83878550992,-28572.167881985653,-9972.610768390989,-13042.064075716027,-187500.02235174447,-11453.816169955277,-24090.978394863418,8257.20378842399,-20454.886013851883,-25876.54750067562,7009.90939258449,-12450.100475561676,-20735.288648043712,-36748.61481769262,0.108,1.006,0.174,192.0,0.0,0.0,0.0,0.0,0.0,0.0,0.0,0.0,0.0,1696032228.418012,0.0,2023-09-29 19:03:48.418
152.0,-55315.87366054937,-26244.03253126532,-44698.21389892267,-28597.246539264503,-9971.135553256936,-13049.7307240642,-187500.02235174447,-11450.284594331337,-24113.86658118565,8201.682055197007,-20535.01701772416,-25884.37061123498,6991.67036910896,-12471.55815023877,-20746.86685167156,-36779.21435585193,0.104,1.01,0.168,192.0,1.5,32.0,15.5,72.0,2.5,32.0,0.0,0.0,0.0,1696032228.478359,0.0,2023-09-29 19:03:48.478
154.0,-55311.51507038058,-26121.29910246123,-44696.47046285516,-28569.932707540123,-9969.101544511504,-13044.00867748364,-187500.02235174447,-11444.853120428696,-24101.461363012957,8243.01043069487,-20479.04824960807,-25879.49793094372,7004.0532355372,-12450.771027895336,-20734.30517128768,-36759.522468986805,0.104,1.01,0.168,192.0,0.0,0.0,0.0,0.0,0.0,0.0,0.0,0.0,0.0,1696032228.478374,0.0,2023-09-29 19:03:48.478
156.0,-55302.842593531925,-26278.43186598204,-44697.319829144464,-28592.5973764178,-9970.174428245358,-13039.270107659117,-187500.02235174447,-11441.545062249312,-24111.430241040023,8204.76659593184,-20539.57677359304,-25875.22874775276,7001.326322713652,-12461.477513489428,-20740.54130799071,-36777.06858838422,0.104,1.01,0.168,192.0,0.0,0.0,0.0,0.0,0.0,0.0,0.0,0.0,0.0,1696032228.47838,0.0,2023-09-29 19:03:48.478
158.0,-55297.14289869582,-26135.335997979164,-44700.2032041792,-28559.06975973484,-9976.008233548191,-13038.733665792188,-187500.02235174447,-11439.64516397061,-24083.82583663772,8243.971555706448,-20495.253264338167,-25871.764227362182,7005.036712293233,-12446.27832725982,-20729.141918318503,-36752.481669483386,0.104,1.01,0.168,192.0,0.0,0.0,0.0,0.0,0.0,0.0,0.0,0.0,0.0,1696032228.478386,0.0,2023-09-29 19:03:48.478
160.0,-55290.124450936855,-26283.41630499557,-44689.74258777411,-28587.23295774853,-9977.25993123769,-13034.24096515667,-187500.02235174447,-11440.561585493278,-24094.71113618745,8226.24662235339,-20522.05300594008,-25872.68064888485,7002.4215581919625,-12455.733115164414,-20741.18950857991,-36770.586582492186,0.104,1.01,0.168,192.0,0.0,0.0,0.0,0.0,0.0,0.0,0.0,0.0,0.0,1696032228.478392,0.0,2023-09-29 19:03:48.478
162.0,-55298.774576041054,-26139.515774192307,-44682.36651210386,-28545.658713061657,-9971.493181168222,-13028.921249976309,-187500.02235174447,-11435.420684268556,-24083.177636048516,8244.932680718026,-20492.638110236898,-25860.476596412256,7015.430273464951,-12430.900327074569,-20726.727929917328,-36742.46808796741,0.104,1.01,0.166,192.0,1.5,32.0,15.5,72.0,2.5,24.0,0.0,0.0,0.0,1696032228.478398,0.0,2023-09-29 19:03:48.478
164.0,-55294.7512620391,-26276.554319447798,-44690.72606453014,-28592.66443165117,-9978.288111482634,-13042.220537927216,-187500.02235174447,-11445.07663787325,-24095.605205965665,8221.53040427332,-20495.834409694005,-25861.5047766572,7009.305895484197,-12448.312336005252,-20737.16619457796,-36760.19302132047,0.104,1.01,0.166,192.0,0.0,0.0,0.0,0.0,0.0,0.0,0.0,0.0,0.0,1696032228.478404,0.0,2023-09-29 19:03:48.478
166.0,-55306.48592787814,-26135.76068112381,-44696.068131454966,-28553.99591374349,-9975.225922492256,-13040.38769488188,-187500.02235174447,-11444.406085539593,-24090.35254601867,8241.579919049731,-20497.57784576152,-25867.092712771027,7002.62272389206,-12446.971231337931,-20736.562697477664,-36752.43696599448,0.104,1.01,0.166,192.0,0.0,0.0,0.0,0.0,0.0,0.0,0.0,0.0,0.0,1696032228.537169,0.0,2023-09-29 19:03:48.537
168.0,-55304.74249181063,-26244.323103943243,-44704.13711120333,-28605.76255390198,-9980.746803372718,-13053.374058410414,-187500.02235174447,-11447.31181231878,-24108.68097647202,8203.24667730888,-20488.793610190583,-25878.961489076795,6994.933723799435,-12465.590234469204,-20745.838671426616,-36770.31836155872,0.104,1.01,0.166,192.0,0.0,0.0,0.0,0.0,0.0,0.0,0.0,0.0,0.0,1696032228.537184,0.0,2023-09-29 19:03:48.537
170.0,-55301.72500630916,-26179.860672934137,-44692.89418374231,-28562.869556292244,-9959.579701373545,-13030.016485454618,-187500.02235174447,-11424.535384718822,-24089.659641940558,8219.67520948353,-20536.31341890257,-25875.653430897408,7007.361293716585,-12452.156836051565,-20732.874659642537,-36760.28242829829,0.104,1.01,0.166,192.0,0.0,0.0,0.0,0.0,0.0,0.0,0.0,0.0,0.0,1696032228.537189,0.0,2023-09-29 19:03:48.537
172.0,-55295.10888995039,-26254.09081627021,-44701.96899199116,-28598.94527184311,-9983.160791773891,-13048.277860674603,-187500.02235174447,-11430.97268712195,-24096.92395888853,8234.986154435415,-20496.05792713856,-25873.619422151976,6998.286485467731,-12463.46681874595,-20731.75707241977,-36759.120137586615,0.108,1.01,0.166,192.0,1.5,48.0,15.5,72.0,2.5,24.0,0.0,0.0,0.0,1696032228.537194,0.0,2023-09-29 19:03:48.537
174.0,-55320.67928560726,-26167.18723382798,-44695.911669243775,-28554.13002421022,-9972.16373350188,-13035.269145401617,-187500.02235174447,-11422.121396317649,-24102.735412446906,8211.62858147962,-20534.502927601687,-25871.58541340654,6998.219430234365,-12455.710763419958,-20729.968932863347,-36758.494288741866,0.108,1.01,0.166,192.0,0.0,0.0,0.0,0.0,0.0,0.0,0.0,0.0,0.0,1696032228.537199,0.0,2023-09-29 19:03:48.537
176.0,-55300.62977083085,-26219.84794376468,-44701.65606756879,-28592.686783395624,-9981.484410939744,-13047.517901363124,-187500.02235174447,-11436.851195913696,-24106.95989214896,8219.25052633888,-20466.307755268543,-25873.68647738534,6986.015377761767,-12455.241376786396,-20738.86492715656,-36760.84122190967,0.108,1.01,0.166,192.0,0.0,0.0,0.0,0.0,0.0,0.0,0.0,0.0,0.0,1696032228.537204,0.0,2023-09-29 19:03:48.537
178.0,-55303.73666331013,-26177.69255372197,-44699.66676231227,-28551.47016662004,-9972.946044557815,-13039.314811148026,-187500.02235174447,-11437.655858714088,-24094.465266998443,8216.791834448795,-20531.06075895557,-25865.773959848164,6999.068796523667,-12448.84877787218,-20732.20410730888,-36756.661445696525,0.108,1.01,0.166,192.0,0.0,0.0,0.0,0.0,0.0,0.0,0.0,0.0,0.0,1696032228.537208,0.0,2023-09-29 19:03:48.537
180.0,-55303.89312552132,-26188.220225360423,-44705.50056761511,-28586.741219370517,-9983.987806318735,-13047.652011829856,-187500.02235174447,-11442.372076794158,-24107.3398718047,8235.455541068977,-20447.353475970445,-25875.608727408497,6985.769508572759,-12458.974118110433,-20740.4966045018,-36754.06864333971,0.108,1.01,0.166,192.0,0.0,0.0,0.0,0.0,0.0,0.0,0.0,0.0,0.0,1696032228.537213,0.0,2023-09-29 19:03:48.537
182.0,-55321.55100364101,-26208.560312814752,-44692.06716919746,-28554.51000386596,-9968.319233455568,-13036.163215179828,-187500.02235174447,-11432.157329578082,-24118.448688798988,8198.530459228808,-20541.96841024976,-25867.78561684914,6993.190287731921,-12454.32495526373,-20728.605476451576,-36754.64978869555,0.106,1.008,0.166,192.0,1.5,40.0,15.5,64.0,2.5,24.0,0.0,0.0,0.0,1696032228.597461,0.0,2023-09-29 19:03:48.597
184.0,-55314.62196285987,-26178.89954792256,-44697.16336693327,-28586.003611803488,-9984.345434230025,-13050.87066303142,-187500.02235174447,-11440.78510293783,-24115.27474108633,8210.95802914596,-20444.023066046604,-25882.69423040083,6986.373005673052,-12463.399763512583,-20732.22645905333,-36750.67117818251,0.106,1.008,0.166,192.0,0.0,0.0,0.0,0.0,0.0,0.0,0.0,0.0,0.0,1696032228.597473,0.0,2023-09-29 19:03:48.597
186.0,-55329.35176245592,-26237.192897462,-44687.90974472878,-28563.38364641472,-9971.06849802357,-13040.655915815343,-187500.02235174447,-11427.105835331182,-24116.81701145375,8189.008616090849,-20549.52329987565,-25874.87111984147,6994.57609588815,-12470.015879871356,-20724.783328149715,-36760.93062888749,0.106,1.008,0.166,192.0,0.0,0.0,0.0,0.0,0.0,0.0,0.0,0.0,0.0,1696032228.597478,0.0,2023-09-29 19:03:48.597
188.0,-55326.80366358801,-26160.10173083565,-44701.231384424136,-28586.0483152924,-9988.860486609994,-13056.905634034352,-187500.02235174447,-11438.751094192396,-24119.05218589928,8222.62563975163,-20444.894784080363,-25884.683535657357,6981.477973637339,-12460.337574522207,-20728.024331095738,-36746.06671882471,0.106,1.008,0.166,192.0,0.0,0.0,0.0,0.0,0.0,0.0,0.0,0.0,0.0,1696032228.597483,0.0,2023-09-29 19:03:48.597
190.0,-55309.81633780197,-26268.373580977157,-44680.6454277808,-28567.026980760933,-9967.4028119329,-13039.560680337034,-187500.02235174447,-11420.623829439144,-24116.459383542468,8205.012465120848,-20553.948945277803,-25876.50279718671,6993.86084006558,-12465.925510636034,-20726.459708983864,-36764.19398357797,0.106,1.008,0.166,192.0,0.0,0.0,0.0,0.0,0.0,0.0,0.0,0.0,0.0,1696032228.597488,0.0,2023-09-29 19:03:48.597
192.0,-55318.26529720608,-26155.340809266665,-44689.72023602966,-28566.289373193908,-9986.804126120109,-13052.524692121113,-187500.02235174447,-11438.84050117022,-24103.3389095472,8230.806378222273,-20441.631429389887,-25877.73214313175,6990.95511328639,-12454.392010497097,-20726.52676421723,-36739.42825072149,0.114,1.006,0.172,192.0,1.5,72.0,15.5,56.0,2.5,48.0,0.0,0.0,0.0,1696032228.597493,0.0,2023-09-29 19:03:48.597
194.0,-55313.459672148194,-26286.187921308032,-44669.58131427543,-28562.064893491854,-9972.186085246336,-13039.761846037132,-187500.02235174447,-11433.386675523125,-24107.00459563787,8207.202936077469,-20543.77890155064,-25862.801177835605,7001.90746806949,-12455.084914575207,-20725.744453161296,-36757.60021896365,0.114,1.006,0.172,192.0,0.0,0.0,0.0,0.0,0.0,0.0,0.0,0.0,0.0,1696032228.597498,0.0,2023-09-29 19:03:48.597
196.0,-55307.08942497843,-26162.0239808588,-44683.08176792643,-28557.8404137898,-9988.50285869871,-13044.947450750764,-187500.02235174447,-11450.888091431629,-24101.774287435328,8241.915195216561,-20445.252411991645,-25874.17821576336,6990.552781886195,-12443.46200745845,-20728.180793306925,-36735.85197160864,0.114,1.006,0.172,192.0,0.0,0.0,0.0,0.0,0.0,0.0,0.0,0.0,0.0,1696032228.657766,0.0,2023-09-29 19:03:48.657
198.0,-55316.09717799392,-26294.994508623426,-44683.1488231598,-28573.79955933089,-9979.942140572328,-13044.254546672648,-187500.02235174447,-11448.563510008278,-24118.024005654337,8203.24667730888,-20534.01118922367,-25874.580547163558,6988.742290585315,-12471.021708371843,-20740.027217868235,-36762.09291959917,0.114,1.006,0.172,192.0,0.0,0.0,0.0,0.0,0.0,0.0,0.0,0.0,0.0,1696032228.657779,0.0,2023-09-29 19:03:48.657
200.0,-55328.12241651087,-26137.302951491238,-44698.12449194485,-28560.61203010226,-9990.089832555035,-13049.574261853011,-187500.02235174447,-11452.944451921518,-24108.61392123865,8251.861721499172,-20455.824787119007,-25875.13934077493,6983.981369016335,-12446.032458070811,-20732.13705207551,-36741.66342516702,0.114,1.006,0.172,192.0,0.0,0.0,0.0,0.0,0.0,0.0,0.0,0.0,0.0,1696032228.657785,0.0,2023-09-29 19:03:48.657
202.0,-55303.13316620984,-26301.56592149329,-44684.93696271622,-28582.42733269064,-9978.623387649464,-13044.321601906016,-187500.02235174447,-11443.333201805735,-24120.281531844324,8193.166040559536,-20534.83820376852,-25875.54167217513,6979.220447447354,-12462.438638501006,-20742.10593010258,-36771.4806522704,0.118,1.004,0.17,192.0,1.5,88.0,15.5,48.0,2.5,40.0,0.0,0.0,0.0,1696032228.657791,0.0,2023-09-29 19:03:48.657
204.0,-55317.88531755035,-26146.511870206818,-44687.01567495056,-28553.19125094309,-9979.293939983125,-13051.228290942703,-187500.02235174447,-11442.997925638903,-24101.796639179785,8224.860814197162,-20478.422400763324,-25872.68064888485,6987.848220807103,-12441.629164413114,-20721.832897881617,-36739.98704433287,0.118,1.004,0.17,192.0,0.0,0.0,0.0,0.0,0.0,0.0,0.0,0.0,0.0,1696032228.657796,0.0,2023-09-29 19:03:48.657
206.0,-55310.62100060237,-26300.51538950389,-44679.147860902296,-28587.992917060008,-9975.02475679216,-13055.54217762258,-187500.02235174447,-11444.562547750778,-24114.894761430594,8194.216572548936,-20519.929590216827,-25873.68647738534,6986.305950439686,-12467.870112403643,-20727.26437178425,-36762.94228588847,0.118,1.004,0.17,192.0,0.0,0.0,0.0,0.0,0.0,0.0,0.0,0.0,0.0,1696032228.657801,0.0,2023-09-29 19:03:48.657
208.0,-55314.82312855997,-26155.89960287805,-44680.13133765833,-28558.488614379003,-9977.751669615707,-13057.933814279297,-187500.02235174447,-11453.436190299535,-24093.794714664786,8225.464311297454,-20483.138618843397,-25877.77684662066,6986.864744051069,-12455.531949464315,-20721.698787414884,-36746.06671882471,0.118,1.004,0.17,192.0,0.0,0.0,0.0,0.0,0.0,0.0,0.0,0.0,0.0,1696032228.657806,0.0,2023-09-29 19:03:48.657
210.0,-55311.24684944712,-26306.148029106625,-44689.60847730738,-28599.884045110237,-9984.07721329656,-13071.613081885944,-187500.02235174447,-11465.75200149441,-24112.14549686259,8198.57516271772,-20512.86643896895,-25882.537768189643,6988.250552207298,-12485.684452734526,-20734.86396489906,-36772.330018559696,0.118,1.004,0.17,192.0,0.0,0.0,0.0,0.0,0.0,0.0,0.0,0.0,0.0,1696032228.657811,0.0,2023-09-29 19:03:48.657
212.0,-55336.258451492606,-26154.13381506608,-44695.30817214349,-28557.75100681198,-9983.339605729534,-13068.39443068438,-187500.02235174447,-11467.093106161728,-24107.317520060245,8209.304000056267,-20495.16385736035,-25890.98672759375,6980.136868970021,-12469.568844982248,-20734.12635733204,-36755.49915498486,0.12,1.004,0.18,192.0,1.5,96.0,15.5,48.0,2.5,80.0,0.0,0.0,0.0,1696032228.718081,0.0,2023-09-29 19:03:48.718
214.0,-55315.44897740472,-26284.91387187408,-44699.063265211975,-28606.43310623564,-9998.896419870429,-13075.926968565818,-187500.02235174447,-11472.882207975652,-24123.410776068067,8185.387633489089,-20503.09872664198,-25897.535788719157,6975.644168334505,-12485.550342267794,-20747.872680172048,-36777.73914071788,0.12,1.004,0.18,192.0,0.0,0.0,0.0,0.0,0.0,0.0,0.0,0.0,0.0,1696032228.718096,0.0,2023-09-29 19:03:48.718
216.0,-55333.77740785807,-26171.545823996763,-44685.42870109424,-28556.63341958921,-9986.602960420008,-13057.799703812563,-187500.02235174447,-11459.739382235932,-24108.189238094,8197.167002817036,-20525.33871237501,-25894.3618410065,6982.707319582381,-12465.634937958115,-20740.96599113536,-36767.770262690814,0.12,1.004,0.18,192.0,0.0,0.0,0.0,0.0,0.0,0.0,0.0,0.0,0.0,1696032228.718103,0.0,2023-09-29 19:03:48.718
218.0,-55315.22545996016,-26260.28224948433,-44685.96514296116,-28592.23974850652,-9996.08010006906,-13063.074715504015,-187500.02235174447,-11458.800608968808,-24117.95695042097,8194.373034760123,-20487.318395056536,-25893.065439828093,6978.52754336924,-12468.138333337109,-20742.55296499169,-36767.367931290624,0.12,1.004,0.18,192.0,0.0,0.0,0.0,0.0,0.0,0.0,0.0,0.0,0.0,1696032228.718108,0.0,2023-09-29 19:03:48.718
220.0,-55315.18075647125,-26191.88591145109,-44676.53270680102,-28542.574172326826,-9976.365861459475,-13044.858043772942,-187500.02235174447,-11443.444960528012,-24101.461363012957,8211.740340201895,-20528.736177532217,-25880.4590559553,6982.90848528248,-12457.565958209749,-20726.035025839214,-36751.94522761646,0.12,1.004,0.18,192.0,0.0,0.0,0.0,0.0,0.0,0.0,0.0,0.0,0.0,1696032228.718114,0.0,2023-09-29 19:03:48.718
222.0,-55315.09134949343,-26232.18610670401,-44692.24598315311,-28591.83741710632,-10001.489222227245,-13073.222407486726,-187500.02235174447,-11464.477952060455,-24117.62167425414,8204.297209298278,-20476.79072341809,-25886.1587507914,6976.158258456977,-12474.262711317864,-20734.5957439656,-36758.002550363846,0.114,1.004,0.18,192.0,1.5,72.0,15.5,48.0,2.5,80.0,0.0,0.0,0.0,1696032228.718119,0.0,2023-09-29 19:03:48.718
224.0,-55326.84836707692,-26169.981201884893,-44682.23240163713,-28552.69951256508,-9981.372652217467,-13065.980442283208,-187500.02235174447,-11451.916271676571,-24109.06095612776,8196.809374905752,-20540.58260209353,-25889.533864204157,6978.907523024979,-12478.308377064272,-20730.550078219185,-36766.40680627904,0.114,1.004,0.18,192.0,0.0,0.0,0.0,0.0,0.0,0.0,0.0,0.0,0.0,1696032228.718124,0.0,2023-09-29 19:03:48.718
226.0,-55311.62682910285,-26208.068574436737,-44684.62403829385,-28587.70234438209,-9988.301692998612,-13077.20101799977,-187500.02235174447,-11457.101876390205,-24114.58183700822,8197.77049991733,-20472.65565069385,-25891.50081771622,6975.934741012424,-12476.833161930224,-20730.080691585623,-36762.71876844392,0.114,1.004,0.18,192.0,0.0,0.0,0.0,0.0,0.0,0.0,0.0,0.0,0.0,1696032228.778425,0.0,2023-09-29 19:03:48.778
228.0,-55320.96985828518,-26214.6399873066,-44671.592971276405,-28548.184460185108,-9973.124858513458,-13065.958090538752,-187500.02235174447,-11444.853120428696,-24107.161057849054,8196.116470827636,-20563.090808760026,-25882.358954234,6985.344825428108,-12477.32490030824,-20719.62007518054,-36763.79165217777,0.114,1.004,0.18,192.0,0.0,0.0,0.0,0.0,0.0,0.0,0.0,0.0,0.0,1696032228.778443,0.0,2023-09-29 19:03:48.778
230.0,-55314.26433494858,-26199.954891199457,-44685.920439472255,-28583.18729200212,-9998.02470183667,-13076.798686599575,-187500.02235174447,-11461.549873536813,-24105.75289794837,8213.751997202873,-20471.180435559803,-25888.818608381585,6980.360386414574,-12481.75054571039,-20727.15261306198,-36758.0249021083,0.114,1.004,0.18,192.0,0.0,0.0,0.0,0.0,0.0,0.0,0.0,0.0,0.0,1696032228.778448,0.0,2023-09-29 19:03:48.778
232.0,-55321.37218968537,-26226.218190934444,-44678.03027367953,-28556.588716100305,-9983.11608828498,-13062.53827363709,-187500.02235174447,-11452.810341454786,-24116.12410737564,8194.842421393683,-20558.419294168867,-25890.673803171376,6977.432307890929,-12477.213141585964,-20731.2429822973,-36768.91020165804,0.116,1.004,0.182,192.0,1.5,80.0,15.5,48.0,2.5,88.0,0.0,0.0,0.0,1696032228.778451,0.0,2023-09-29 19:03:48.778
234.0,-55307.26823893407,-26183.436952046988,-44683.88643072682,-28574.112483753262,-9996.974169847272,-13065.980442283208,-187500.02235174447,-11462.242777614923,-24103.942406647493,8209.996904134381,-20462.64206917788,-25889.98089909326,6980.561552114672,-12470.03823161581,-20727.130261317525,-36751.94522761646,0.116,1.004,0.182,192.0,0.0,0.0,0.0,0.0,0.0,0.0,0.0,0.0,0.0,1696032228.778454,0.0,2023-09-29 19:03:48.778
236.0,-55313.19145121473,-26256.92948781604,-44671.30239859848,-28556.968695756044,-9981.529114428651,-13055.989212511686,-187500.02235174447,-11454.106742633194,-24110.58087475072,8171.61895890462,-20571.8079890976,-25886.426971724868,6987.423537662451,-12477.079031119232,-20723.06224382666,-36766.58562023469,0.116,1.004,0.182,192.0,0.0,0.0,0.0,0.0,0.0,0.0,0.0,0.0,0.0,1696032228.778457,0.0,2023-09-29 19:03:48.778
238.0,-55326.9601257992,-26150.98221909788,-44688.06620693996,-28572.726675597038,-9999.857544882005,-13075.30111972107,-187500.02235174447,-11465.260263116392,-24111.854924184678,8218.758787960862,-20466.95595585775,-25901.42499225438,6976.605293346083,-12476.855513674678,-20725.76680490575,-36749.21831479291,0.116,1.004,0.182,192.0,0.0,0.0,0.0,0.0,0.0,0.0,0.0,0.0,0.0,1696032228.77846,0.0,2023-09-29 19:03:48.778
240.0,-55316.879489049854,-26255.56603140426,-44672.06235790996,-28567.429312161126,-9977.841076593528,-13061.174817225316,-187500.02235174447,-11452.005678654396,-24125.28832260231,8165.114601268126,-20568.6563931294,-25901.02266085418,6977.90169452449,-12493.976949927444,-20732.53938347571,-36768.66433246903,0.116,1.004,0.182,192.0,0.0,0.0,0.0,0.0,0.0,0.0,0.0,0.0,0.0,1696032228.778464,0.0,2023-09-29 19:03:48.778
242.0,-55316.54421288303,-26164.75089368235,-44675.03513992252,-28568.479844150526,-9985.038338308135,-13070.96488129674,-187500.02235174447,-11461.482818303444,-24103.785944436306,8217.52944201582,-20480.411706019844,-25897.06640208559,6983.444927149407,-12476.631996230126,-20721.22940078132,-36744.70326241294,0.118,1.01,0.18,192.0,1.5,88.0,15.5,72.0,2.5,80.0,0.0,0.0,0.0,1696032228.837818,0.0,2023-09-29 19:03:48.837
244.0,-55320.63458211835,-26276.509615958887,-44671.592971276405,-28571.944364541097,-9984.16662027438,-13078.810343600551,-187500.02235174447,-11464.813228227284,-24106.289339815303,8174.435278705988,-20566.957660550797,-25889.73502990425,6981.455621892885,-12496.167420884063,-20724.15747930497,-36767.05500686825,0.118,1.01,0.18,192.0,0.0,0.0,0.0,0.0,0.0,0.0,0.0,0.0,0.0,1696032228.837826,0.0,2023-09-29 19:03:48.837
246.0,-55317.41593091678,-26126.93174206397,-44670.87771545383,-28561.37198941374,-9993.777870390162,-13080.6878901348,-187500.02235174447,-11470.714088763489,-24110.35735730617,8199.312770284745,-20466.37481050191,-25898.340451519543,6983.199057960398,-12480.52119976535,-20724.33629326061,-36752.45931773893,0.118,1.01,0.18,192.0,0.0,0.0,0.0,0.0,0.0,0.0,0.0,0.0,0.0,1696032228.837829,0.0,2023-09-29 19:03:48.837
248.0,-55301.03210223104,-26265.24433675341,-44657.28785482501,-28566.64700110519,-9988.525210443166,-13076.374003454925,-187500.02235174447,-11467.942472451028,-24111.854924184678,8168.959101314438,-20544.784730051128,-25882.426009467366,6991.357444686586,-12490.557133025784,-20726.3926537505,-36771.88298367059,0.118,1.01,0.18,192.0,0.0,0.0,0.0,0.0,0.0,0.0,0.0,0.0,0.0,1696032228.837832,0.0,2023-09-29 19:03:48.837
250.0,-55288.53747708053,-26134.017245056304,-44656.17026760224,-28538.439099602598,-9986.02181506417,-13067.25449171716,-187500.02235174447,-11463.136847393138,-24085.16694130504,8230.292288099801,-20470.57693845951,-25875.4075617084,6993.123232498555,-12468.630071715126,-20718.055453068668,-36742.065756567215,0.118,1.01,0.18,192.0,0.0,0.0,0.0,0.0,0.0,0.0,0.0,0.0,0.0,1696032228.837835,0.0,2023-09-29 19:03:48.837
252.0,-55284.35770086738,-26281.96344160598,-44659.21010484816,-28564.43417840412,-9987.921713342872,-13072.10482026396,-187500.02235174447,-11466.64607127262,-24098.555636233767,8196.272933038823,-20529.42908161033,-25874.669954141376,6986.305950439686,-12485.885618434622,-20724.31394151616,-36759.09778584216,0.118,1.006,0.186,192.0,1.5,88.0,15.5,56.0,2.5,104.0,0.0,0.0,0.0,1696032228.837839,0.0,2023-09-29 19:03:48.837
254.0,-55311.4033116583,-26130.79859385474,-44668.91076194176,-28536.44979434607,-9997.577666947564,-13071.478971419212,-187500.02235174447,-11469.529446307355,-24084.3846302491,8217.350628060178,-20477.081296096003,-25874.982878563747,6987.781165573736,-12477.056679374777,-20717.16138329046,-36738.64593966555,0.118,1.006,0.186,192.0,0.0,0.0,0.0,0.0,0.0,0.0,0.0,0.0,0.0,1696032228.837842,0.0,2023-09-29 19:03:48.837
0.0,-55304.6530848328,-26273.22390952396,-44673.09053815491,-28577.197024488098,-10001.55627746061,-13082.386622713402,-187500.02235174447,-11474.22331264297,-24110.759688706363,8185.231171277902,-20513.805212236075,-25884.325907746068,6978.259322435775,-12489.014862658369,-20734.43928175441,-36766.51856500132,0.118,1.006,0.186,192.0,0.0,0.0,0.0,0.0,0.0,0.0,0.0,0.0,0.0,1696032228.898231,0.0,2023-09-29 19:03:48.898
2.0,-55294.57244808346,-26144.947248094948,-44661.91466592725,-28526.860895974743,-9989.285169754645,-13062.672384103822,-187500.02235174447,-11460.27582410286,-24092.498313486376,8210.689808212497,-20493.643938737387,-25880.4590559553,6978.61695034706,-12471.692260705502,-20719.843592625093,-36745.39616649105,0.118,1.006,0.186,192.0,0.0,0.0,0.0,0.0,0.0,0.0,0.0,0.0,0.0,1696032228.898243,0.0,2023-09-29 19:03:48.898
4.0,-55289.67741604774,-26279.48239797144,-44661.26646533805,-28560.030884746426,-9998.605847192508,-13073.602387142468,-187500.02235174447,-11468.121286406673,-24097.77332517783,8193.970703359926,-20500.416517307345,-25870.624288394964,6982.416746904462,-12474.240359573409,-20722.41404323745,-36752.16874506101,0.118,1.006,0.186,192.0,0.0,0.0,0.0,0.0,0.0,0.0,0.0,0.0,0.0,1696032228.898246,0.0,2023-09-29 19:03:48.898
6.0,-55298.014616729575,-26136.40888171302,-44663.23341885012,-28522.435250572595,-9996.16950704688,-13077.983329055707,-187500.02235174447,-11468.993004440428,-24091.917168130534,8213.729645458418,-20497.220217850238,-25877.106294287005,6983.377871916041,-12476.430830530027,-20718.413080979957,-36739.56236118822,0.114,1.004,0.18,192.0,1.5,72.0,15.5,48.0,2.5,80.0,0.0,0.0,0.0,1696032228.89825,0.0,2023-09-29 19:03:48.898
8.0,-55299.40042488581,-26253.71083661447,-44672.643503265805,-28575.252422720485,-10003.277361783668,-13090.008567572662,-187500.02235174447,-11474.804457998807,-24106.982243893417,8194.328331271212,-20490.313528813545,-25880.19083502184,6976.739403812815,-12497.977912184944,-20732.047645097693,-36759.96950387592,0.114,1.004,0.18,192.0,0.0,0.0,0.0,0.0,0.0,0.0,0.0,0.0,0.0,1696032228.898253,0.0,2023-09-29 19:03:48.898
10.0,-55319.36053268439,-26140.946285837446,-44676.331541100924,-28540.74132928149,-9998.851716381516,-13076.575169155023,-187500.02235174447,-11467.383678839646,-24096.92395888853,8195.021235349326,-20516.17449714833,-25890.27147177118,6979.063985236166,-12491.495906292905,-20722.70461591537,-36746.89373336956,0.114,1.004,0.18,192.0,0.0,0.0,0.0,0.0,0.0,0.0,0.0,0.0,0.0,1696032228.898256,0.0,2023-09-29 19:03:48.898
12.0,-55309.88339303534,-26244.792490576805,-44681.53949755902,-28589.98222231653,-10004.909039128905,-13082.63249190241,-187500.02235174447,-11472.234007386449,-24113.285435829814,8193.456613237455,-20493.8898079264,-25903.235483555258,6975.532409612229,-12502.783537242834,-20729.63365669652,-36757.309646285736,0.114,1.004,0.18,192.0,0.0,0.0,0.0,0.0,0.0,0.0,0.0,0.0,0.0,1696032228.898259,0.0,2023-09-29 19:03:48.898
14.0,-55318.42175941727,-26192.71292599594,-44672.93407594372,-28546.97746598452,-9989.240466265735,-13070.45079117427,-187500.02235174447,-11465.997870683415,-24105.931711904017,8190.126203313614,-20558.10636974649,-25906.901169645927,6984.0484242497005,-12494.491040049916,-20721.36351124805,-36752.16874506101,0.114,1.004,0.18,192.0,0.0,0.0,0.0,0.0,0.0,0.0,0.0,0.0,0.0,1696032228.898263,0.0,2023-09-29 19:03:48.898
16.0,-55310.91157328029,-26225.257065922862,-44683.08176792643,-28592.3515072288,-10006.563068218598,-13085.314701237048,-187500.02235174447,-11480.168876668082,-24117.979302165422,8185.365281744634,-20484.166799088336,-25917.65235872893,6965.272958907242,-12508.729101267949,-20736.540345733207,-36757.64492245256,0.11,1.004,0.184,192.0,1.5,56.0,15.5,48.0,2.5,96.0,0.0,0.0,0.0,1696032228.958645,0.0,2023-09-29 19:03:48.958
18.0,-55317.75120708361,-26207.66624303654,-44663.25577059457,-28543.401186871677,-9989.531038943654,-13063.231177715204,-187500.02235174447,-11463.78504798234,-24106.691671215496,8171.842476349173,-20560.274488958657,-25905.44830625633,6980.069813736655,-12486.66792949056,-20729.119566574045,-36758.11430908612,0.11,1.004,0.184,192.0,0.0,0.0,0.0,0.0,0.0,0.0,0.0,0.0,0.0,1696032228.958661,0.0,2023-09-29 19:03:48.958
20.0,-55314.84548030442,-26206.213379646942,-44666.98851191861,-28577.353486699285,-10014.78851017815,-13079.927930823318,-187500.02235174447,-11478.067812689284,-24111.72081371794,8191.757880658852,-20472.856816393956,-25909.53867549165,6972.112592710566,-12486.08678413472,-20735.06513059916,-36748.83833513717,0.11,1.004,0.184,192.0,0.0,0.0,0.0,0.0,0.0,0.0,0.0,0.0,0.0,1696032228.958664,0.0,2023-09-29 19:03:48.958
22.0,-55314.46550064868,-26225.3911763896,-44654.71740421264,-28538.662617047143,-9994.962512846294,-13059.476084646712,-187500.02235174447,-11459.202940369005,-24105.77524969283,8190.483831224898,-20564.2530994717,-25892.17137004988,6992.0503487647,-12477.74958345289,-20721.989360092804,-36751.20762004944,0.11,1.004,0.184,192.0,0.0,0.0,0.0,0.0,0.0,0.0,0.0,0.0,0.0,1696032228.958667,0.0,2023-09-29 19:03:48.958
24.0,-55310.03985524653,-26191.125952139613,-44675.32571260044,-28574.112483753262,-10013.35799853301,-13079.100916278472,-187500.02235174447,-11471.004661441406,-24105.238807825903,8201.838517408194,-20459.55752844304,-25902.967262621794,6982.9978922603,-12480.722365465446,-20728.560772962664,-36738.84710536565,0.11,1.004,0.184,192.0,0.0,0.0,0.0,0.0,0.0,0.0,0.0,0.0,0.0,1696032228.958671,0.0,2023-09-29 19:03:48.958
26.0,-55295.153593439296,-26237.818746306748,-44660.50650602657,-28548.966771241045,-9993.040262823137,-13067.96974753973,-187500.02235174447,-11461.013431669884,-24098.555636233767,8181.4984299538655,-20558.151073235404,-25904.08484984456,6986.529467884239,-12500.526011052849,-20732.96406662036,-36759.14248933107,0.108,1.006,0.176,192.0,1.5,48.0,15.5,56.0,2.5,64.0,0.0,0.0,0.0,1696032228.958674,0.0,2023-09-29 19:03:48.958
28.0,-55295.84649751741,-26167.96954488392,-44652.03519487801,-28541.300122892877,-9995.320140757578,-13060.504264891655,-187500.02235174447,-11457.012469412384,-24096.90160714407,8224.659648497063,-20451.80147311705,-25885.5105502022,6995.313703455175,-12474.575635740235,-20711.66285415445,-36725.65957613702,0.108,1.006,0.176,192.0,0.0,0.0,0.0,0.0,0.0,0.0,0.0,0.0,0.0,1696032228.958677,0.0,2023-09-29 19:03:48.958
30.0,-55296.18177368424,-26234.130708471625,-44646.49196225309,-28527.799669241867,-9992.392062233934,-13057.44207590128,-187500.02235174447,-11458.957071179995,-24112.078441629223,8192.51783997033,-20544.270639928654,-25874.625250652465,6986.641226606515,-12481.415269543562,-20712.914551843947,-36734.04148030776,0.108,1.006,0.176,192.0,0.0,0.0,0.0,0.0,0.0,0.0,0.0,0.0,0.0,1696032229.017427,0.0,2023-09-29 19:03:49.017
32.0,-55301.81441328698,-26145.55074519524,-44659.88065718182,-28543.401186871677,-10011.70396944332,-13072.931834808807,-187500.02235174447,-11476.346728366225,-24109.82091543924,8219.295229827789,-20451.15327252785,-25883.633003667957,6977.052328235189,-12469.725307193436,-20721.788194392702,-36728.40884070502,0.108,1.006,0.176,192.0,0.0,0.0,0.0,0.0,0.0,0.0,0.0,0.0,0.0,1696032229.017438,0.0,2023-09-29 19:03:49.017
34.0,-55301.76970979806,-26263.43384545253,-44653.21983733414,-28542.50711709346,-9996.661245424895,-13062.046535259073,-187500.02235174447,-11466.757829994898,-24119.09688938819,8193.031930092804,-20559.44747441381,-25884.54942519062,6975.063022978667,-12485.259769589877,-20728.44901424039,-36751.60995144963,0.108,1.006,0.176,192.0,0.0,0.0,0.0,0.0,0.0,0.0,0.0,0.0,0.0,1696032229.017441,0.0,2023-09-29 19:03:49.017
36.0,-55300.18273594174,-26153.999704599348,-44655.65617747977,-28536.69566353508,-10006.183088562855,-13068.528541151112,-187500.02235174447,-11471.004661441406,-24102.66835721354,8232.706276500974,-20474.5331972281,-25885.35408799101,6982.394395160008,-12470.865246160656,-20721.63173218152,-36727.69358488245,0.11,1.002,0.168,192.0,1.5,56.0,15.5,40.0,2.5,32.0,0.0,0.0,0.0,1696032229.017445,0.0,2023-09-29 19:03:49.017
38.0,-55292.89606724931,-26288.400744009108,-44641.97690987312,-28548.74325379649,-9992.88380061195,-13069.556721396057,-187500.02235174447,-11466.735478250444,-24115.5429620198,8189.545057957775,-20557.16759647937,-25887.097524058525,6979.689834080915,-12495.8991999506,-20725.029197338725,-36749.97827410439,0.11,1.002,0.168,192.0,0.0,0.0,0.0,0.0,0.0,0.0,0.0,0.0,0.0,1696032229.017448,0.0,2023-09-29 19:03:49.017
